Date and Time:                Mon Jan 17 20:46:55.000 2022
Software Version:             4.31.30023.0
Temperature (C):              -50
Model:                        DU420_BVF
Data Type:                    Counts (Bg Corrected)
Acquisition Mode:             Accumulate
Trigger Mode:                 Internal
Exposure Time (secs):         0.09999
Accumulate Cycle Time (secs): 0.09999
Frequency (Hz):               10.001
Number of Accumulations:      1000
Readout Mode:                 Full Vertical Binning
Horizontal binning:           1
Extended Dynamic Range:       off
Horizontally flipped:         false
Vertical Shift Speed (usecs): 8.25
Pixel Readout Time (usecs):   30.303
Serial Number:                22942
Pre-Amplifier Gain:           1.000000
Spurious Noise Filter Mode:   No Filter
Photon counted:               false
Data Averaging Filter Mode:   No Filter
KY328i:
Serial Number:                
Wavelength (nm):              889.526
Grating Groove Density (l/mm):150.012
Grating Blaze:                500nm
Output Flipper Port:          Direct
Filter:                       6-785 LP



380,-2433
380.4744,-2455.72
380.94882,-2689.64
381.42325,-2487.22
381.89767,-2531.08
382.37207,-2714.14
382.8465,-2559.07
383.32092,-2476.68
383.79535,-2670.94
384.26974,-2658.68
384.74417,-2477.33
385.2186,-2591.13
385.69302,-2767.64
386.16742,-2688.44
386.64185,-2547.55
387.11627,-2426.68
387.5907,-2564.54
388.06509,-2658.33
388.53952,-2715.04
389.01395,-2518.7
389.48837,-2497.96
389.96277,-2574.59
390.43719,-2494.65
390.91162,-2581.2
391.38605,-2606.96
391.86044,-2603.74
392.33487,-2641.42
392.8093,-2701.39
393.28372,-2463.01
393.75812,-2631.07
394.23254,-2713.07
394.70697,-2600.84
395.1814,-2501.11
395.65579,-2566.75
396.13022,-2642.24
396.60464,-2559.34
397.07907,-2528.78
397.55347,-2586.52
398.02789,-2608.4
398.50232,-2578.7
398.97675,-2585.32
399.45114,-2509.78
399.92557,-2599.34
400.39999,-2465.34
400.87442,-2449.94
401.34882,-2478.65
401.82324,-2598.12
402.29767,-2816.78
402.77209,-2626.04
403.24649,-2487.63
403.72092,-2555.23
404.19534,-2592.66
404.66977,-2572.41
405.14417,-2540.49
405.61859,-2741.77
406.09302,-2511.14
406.56744,-2515.5
407.04184,-2562.15
407.51627,-2259.73
407.99069,-1807.62
408.46512,-1021.2
408.93951,-369.513
409.41394,-251.231
409.88837,-126.584
410.36279,-357.553
410.83719,-1033.63
411.31161,-1749.79
411.78604,-2198.06
412.26047,-2331.84
412.73486,-2569.42
413.20929,-2609.34
413.68372,-2393.91
414.15814,-2496.32
414.63254,-2587.92
415.10696,-2474.2
415.58139,-2606.19
416.05582,-2461.57
416.53021,-2522.48
417.00464,-2746.98
417.47906,-2623.63
417.95349,-2666.35
418.42789,-2683.48
418.90231,-2489.21
419.37674,-2446.75
419.85117,-2396.32
420.32556,-2469.48
420.79999,-2547.55
421.27441,-2558.27
421.74884,-2672.44
422.22324,-2632.03
422.69766,-2533.22
423.17209,-2566.22
423.64651,-2552.2
424.12091,-2543.97
424.59534,-2484.92
425.06976,-2546.96
425.54419,-2702.89
426.01859,-2548.2
426.49301,-2370.74
426.96744,-2461.75
427.44186,-2496.22
427.91626,-2571
428.39069,-2684.18
428.86511,-2617.6
429.33954,-2593.49
429.81393,-2655.61
430.28836,-2671.34
430.76279,-2585.25
431.23721,-2576.47
431.71161,-2659.71
432.18604,-2620.16
432.66046,-2636.39
433.13489,-2665.36
433.60928,-2576.47
434.08371,-2654.38
434.55814,-2483.13
435.03256,-2654.89
435.50696,-2720.19
435.98138,-2463.61
436.45581,-2521.88
436.93024,-2786.93
437.40463,-2590.11
437.87906,-2545.46
438.35349,-2727.04
438.82791,-2665.72
439.30231,-2468.22
439.77673,-2375.16
440.25116,-2474.15
440.72559,-2523.95
441.19998,-2585.47
441.67441,-2829.37
442.14883,-2578.86
442.62326,-2402.13
443.09766,-2611.13
443.57208,-2568.1
444.04651,-2453.13
444.52094,-2502.9
444.99533,-2591.62
445.46976,-2610.25
445.94418,-2506.29
446.41861,-2484.08
446.89301,-2588.37
447.36743,-2632.9
447.84186,-2544.62
448.31628,-2562.92
448.79068,-2455.24
449.26511,-2601.28
449.73953,-2557.51
450.21396,-2409
450.68835,-2600.93
451.16278,-2602.85
451.63721,-2662.91
452.11163,-2685.82
452.58603,-2687.54
453.06046,-2719.96
453.53488,-2563.69
454.00931,-2582.42
454.4837,-2518.28
454.95813,-2520.77
455.43256,-2565.84
455.90698,-2511.14
456.38138,-2488.69
456.8558,-2523.05
457.33023,-2602.01
457.80466,-2640.37
458.27905,-2524.63
458.75348,-2493.7
459.22791,-2410.61
459.70233,-2454.07
460.17673,-2498.51
460.65115,-2571.32
461.12558,-2603.03
461.60001,-2422.32
462.0744,-2622.36
462.54883,-2696.75
463.02325,-2566.17
463.49768,-2627.45
463.97208,-2513.51
464.4465,-2411.61
464.92093,-2546.65
465.39536,-2612.02
465.86975,-2527.21
466.34418,-2568.42
466.8186,-2599.96
467.29303,-2454.37
467.76743,-2453.91
468.24185,-2627.59
468.71628,-2585.14
469.1907,-2526.38
469.6651,-2552.58
470.13953,-2428.1
470.61395,-2519.89
471.08838,-2703.36
471.56277,-2409.23
472.0372,-2547.8
472.51163,-2614.28
472.98605,-2607.45
473.46045,-2603.31
473.93488,-2540.8
474.4093,-2534.74
474.88373,-2505.92
475.35812,-2511.48
475.83255,-2634.42
476.30698,-2618.87
476.7814,-2562.66
477.2558,-2561.1
477.73022,-2505.6
478.20465,-2445.67
478.67908,-2402.19
479.15347,-2500.61
479.6279,-2502.87
480.10233,-2455.24
480.57675,-2480.39
481.05115,-2593.03
481.52557,-2733.02
482,-2677.83
482.47443,-2464.16
482.94882,-2551.76
483.42325,-2610.76
483.89767,-2456.51
484.3721,-2439.5
484.8465,-2592.04
485.32092,-2560.93
485.79535,-2508.81
486.26978,-2547.73
486.74417,-2509.74
487.2186,-2497.37
487.69302,-2472.2
488.16745,-2570.3
488.64185,-2598.04
489.11627,-2529.55
489.5907,-2564.16
490.06512,-2465.28
490.53952,-2548.49
491.01395,-2591.29
491.48837,-2480.6
491.9628,-2515.26
492.43719,-2633.69
492.91162,-2526.16
493.38605,-2462.73
493.86047,-2498.52
494.33487,-2428.44
494.8093,-2408.19
495.28372,-2476.51
495.75815,-2472.45
496.23254,-2554.24
496.70697,-2562.49
497.1814,-2461.66
497.65582,-2558.18
498.13022,-2610.1
498.60464,-2616.9
499.07907,-2455.68
499.5535,-2374.44
500.02789,-2331.45
500.50232,-2519.85
500.97675,-2486.94
501.45114,-2508.93
501.92557,-2601.74
502.39999,-2524.59
502.87442,-2426.59
503.34882,-2425.63
503.82324,-2580.58
504.29767,-2529.5
504.77209,-2430.55
505.24649,-2529.07
505.72092,-2490.36
506.19534,-2552.8
506.66977,-2564.77
507.14417,-2427.28
507.61859,-2481.03
508.09302,-2619.92
508.56744,-2523.83
509.04184,-2458.7
509.51627,-2553.73
509.99069,-2519.56
510.46512,-2468.98
510.93951,-2547.96
511.41394,-2712.59
511.88837,-2523.76
512.36279,-2422.94
512.83722,-2547.84
513.31165,-2476.72
513.78601,-2417.53
514.26044,-2503.68
514.73486,-2470.81
515.20929,-2485.14
515.68372,-2406.66
516.15814,-2514.56
516.63257,-2752.2
517.10699,-2578.18
517.58136,-2634.73
518.05579,-2456.43
518.53021,-2489.41
519.00464,-2689.84
519.47906,-2817.45
519.95349,-2618.18
520.42792,-2431.59
520.90234,-2481.08
521.37671,-2439.13
521.85114,-2428.75
522.32556,-2455.99
522.79999,-2433.35
523.27441,-2449.17
523.74884,-2560.2
524.22327,-2624.45
524.69769,-2394.68
525.17206,-2547.16
525.64648,-2571.13
526.12091,-2484.25
526.59534,-2536.81
527.06976,-2502.06
527.54419,-2418.49
528.01862,-2541.39
528.49304,-2515.84
528.96741,-2423.15
529.44183,-2621.25
529.91626,-2526.3
530.39069,-2357.13
530.86511,-2618.29
531.33954,-2504.86
531.81396,-2477.19
532.28839,-2561.31
532.76276,-2399.96
533.23718,-2333.16
533.71161,-2427.27
534.18604,-2492.43
534.66046,-2472.92
535.13489,-2495.52
535.60931,-2540.05
536.08374,-2391.81
536.55811,-2457.62
537.03253,-2540.46
537.50696,-2401.46
537.98138,-2476.03
538.45581,-2478.52
538.93024,-2459.66
539.40466,-2444.88
539.87909,-2461.43
540.35345,-2499.8
540.82788,-2471.82
541.30231,-2544.89
541.77673,-2544.61
542.25116,-2362.43
542.72559,-2426.37
543.20001,-2377.52
543.67444,-2328.89
544.1488,-2437.9
544.62323,-2432.13
545.09766,-2271.48
545.57208,-2261.4
546.04651,-2303.92
546.52094,-2370.98
546.99536,-2258.41
547.46979,-2286.48
547.94415,-2479.9
548.41858,-2392.5
548.89301,-2247.9
549.36743,-2246.88
549.84186,-2313.17
550.31628,-2310.42
550.79071,-2382.36
551.26514,-2365.5
551.7395,-2463.58
552.21393,-2454.54
552.68835,-2351.81
553.16278,-2471.41
553.63721,-2437.84
554.11163,-2328.76
554.58606,-2359.36
555.06049,-2329.43
555.53485,-2419.85
556.00928,-2477.38
556.4837,-2331.74
556.95813,-2356.03
557.43256,-2348.9
557.90698,-2188.51
558.38141,-2460.31
558.85583,-2398.75
559.3302,-2299.5
559.80463,-2462.7
560.27905,-2302.48
560.75348,-2287.81
561.22791,-2412.57
561.70233,-2360.23
562.17676,-2268.78
562.65118,-2204.13
563.12555,-2135.79
563.59998,-2276.27
564.0744,-2410.62
564.54883,-2222.02
565.02325,-2101.09
565.49768,-2281.47
565.97211,-2251.74
566.44653,-2357.73
566.9209,-2457.33
567.39532,-2195.02
567.86975,-2342.26
568.34418,-2263.26
568.8186,-2324.57
569.29303,-2285.3
569.76746,-2304.37
570.24188,-2214.79
570.71625,-2148.69
571.19067,-2294.7
571.6651,-2298.11
572.13953,-2162.05
572.61395,-2237.79
573.08838,-2291.53
573.56281,-2239.17
574.03723,-2251.97
574.5116,-2260.91
574.98602,-2377.86
575.46045,-2256.33
575.93488,-2121.46
576.4093,-2258.57
576.88373,-2282.46
577.35815,-2141.37
577.83258,-2262.02
578.30695,-2425.29
578.78137,-2287.26
579.2558,-2265.79
579.73022,-2398.62
580.20465,-2269.37
580.67908,-2200.06
581.1535,-2343.54
581.62793,-2239.76
582.10229,-2303.12
582.57672,-2360.31
583.05115,-2410.08
583.52557,-2306.11
584,-2146.06
584.47443,-2132.18
584.94885,-2227.41
585.42328,-2357.45
585.89764,-2292.2
586.37207,-2088.11
586.8465,-2104.03
587.32092,-2137.78
587.79535,-2333.89
588.26978,-2285.63
588.7442,-2108.43
589.21863,-2187.64
589.69299,-2387.33
590.16742,-2308.53
590.64185,-2122.46
591.11627,-2199.58
591.5907,-2243.61
592.06512,-2113.38
592.53955,-2167.52
593.01398,-2234.14
593.48834,-2130.47
593.96277,-2315.8
594.43719,-2361.46
594.91162,-2222.77
595.38605,-2213.48
595.86047,-2256.72
596.3349,-2361.94
596.80933,-2428.54
597.28369,-2178.35
597.75812,-2131.17
598.23254,-2244.04
598.70697,-2300.39
599.1814,-2260.8
599.65582,-2085.47
600.13025,-2258.66
600.60468,-2219.35
601.07904,-2354.92
601.55347,-2315.76
602.02789,-2319.74
602.50232,-2272.35
602.97675,-2381.57
603.45117,-2312.5
603.9256,-2169.07
604.40002,-2348.83
604.87439,-2261.47
605.34882,-2289.58
605.82324,-2250.78
606.29767,-2296.03
606.77209,-2400.94
607.24652,-2183.39
607.72095,-2266.8
608.19537,-2291.76
608.66974,-2261.27
609.14417,-2334.43
609.61859,-2243.5
610.09302,-2249.74
610.56744,-2316
611.04187,-2182.37
611.5163,-2257.85
611.99072,-2238.85
612.46509,-2162.58
612.93951,-2118.6
613.41394,-2176.08
613.88837,-2217.17
614.36279,-2244.84
614.83722,-2234.52
615.31165,-2028.86
615.78607,-2240.71
616.26044,-2331.05
616.73486,-2220.47
617.20929,-2281.22
617.68372,-2339.19
618.15814,-2451.29
618.63257,-2311.74
619.10699,-2291.01
619.58142,-2249.87
620.05579,-2169.13
620.53021,-2207.42
621.00464,-2262.25
621.47906,-2200.04
621.95349,-2272.06
622.42792,-2275.8
622.90234,-2150.03
623.37671,-2182.58
623.85114,-2188.81
624.32556,-2159.56
624.79999,-2224.33
625.27441,-2269.32
625.74884,-2316.94
626.22327,-2379.15
626.69769,-2232.04
627.17206,-2379.21
627.64648,-2373.59
628.12091,-2305.6
628.59534,-2519.82
629.06976,-2467.48
629.54419,-2288.94
630.01862,-2290.43
630.49304,-2264.18
630.96741,-2254.49
631.44183,-2284.28
631.91626,-2445.16
632.39069,-2367.24
632.86511,-2246.92
633.33954,-2344.41
633.81396,-2450.82
634.28839,-2406.72
634.76276,-2333.84
635.23718,-2456.23
635.71161,-2526.29
636.18604,-2302.21
636.66046,-2265.47
637.13489,-2413.87
637.60931,-2316.09
638.08374,-2435.68
638.55811,-2705.77
639.03253,-2524.41
639.50696,-2362.53
639.98138,-2462.68
640.45581,-2487.51
640.93024,-2499.62
641.40466,-2382.8
641.87909,-2474.16
642.35345,-2551.91
642.82788,-2540.83
643.30231,-2713.97
643.77673,-2442.48
644.25116,-2600.32
644.72559,-2509.21
645.20001,-2567.38
645.67444,-2401.64
646.1488,-2309.13
646.62323,-2375.73
647.09766,-2454.34
647.57208,-2447.34
648.04651,-2467.36
648.52094,-2538.54
648.99536,-2470.11
649.46979,-2367.52
649.94415,-2209.57
650.41858,-2295.95
650.89301,-2448.92
651.36743,-2349.23
651.84186,-2598.2
652.31628,-2498.33
652.79071,-2255.31
653.26514,-2481.39
653.7395,-2475.92
654.21393,-2289.22
654.68835,-2443.66
655.16278,-2429.44
655.63721,-2432.56
656.11163,-2386.96
656.58606,-2440.88
657.06049,-2537.64
657.53485,-2449.66
658.00928,-2460.49
658.4837,-2488.98
658.95813,-2303.93
659.43256,-2472.89
659.90698,-2552.27
660.38141,-2365.41
660.85583,-2404.72
661.3302,-2451.87
661.80463,-2410.01
662.27905,-2594.53
662.75348,-2566.78
663.22791,-2441.34
663.70233,-2452.5
664.17676,-2451.61
664.65118,-2443.05
665.12555,-2434.4
665.59998,-2400.86
666.0744,-2369.67
666.54883,-2478.5
667.02325,-2513.61
667.49768,-2600.54
667.97211,-2636.51
668.44653,-2391.6
668.9209,-2422.26
669.39532,-2398.39
669.86975,-2505.36
670.34418,-2589.89
670.8186,-2508.98
671.29303,-2499.02
671.76746,-2384.85
672.24188,-2404.17
672.71625,-2536.89
673.19067,-2534.44
673.6651,-2556.36
674.13953,-2396.47
674.61395,-2313.85
675.08838,-2534.6
675.56281,-2661.6
676.03723,-2529.72
676.5116,-2494.42
676.98602,-2446.24
677.46045,-2497.91
677.93488,-2513.83
678.4093,-2446.22
678.88373,-2387.43
679.35815,-2423.61
679.83258,-2429.5
680.30695,-2311.74
680.78137,-2513.33
681.2558,-2549.53
681.73022,-2389.12
682.20465,-2472.01
682.67908,-2526.53
683.1535,-2487.56
683.62793,-2533.12
684.10229,-2483.43
684.57672,-2481.86
685.05115,-2477.02
685.52557,-2555.77
686,-2577.68
686.47443,-2554.56
686.94885,-2586.17
687.42328,-2568.6
687.89764,-2474.48
688.37207,-2518.79
688.8465,-2478.38
689.32092,-2566.86
689.79535,-2503.8
690.26978,-2331.28
690.7442,-2467.69
691.21863,-2600.47
691.69299,-2506.36
692.16742,-2441.01
692.64185,-2535.52
693.11627,-2657.45
693.5907,-2519.6
694.06512,-2570.69
694.53955,-2418.62
695.01398,-2459.37
695.48834,-2530.88
695.96277,-2474.41
696.43719,-2427.68
696.91162,-2533.71
697.38605,-2441.94
697.86047,-2326.31
698.3349,-2451.74
698.80933,-2482.07
699.28369,-2459.25
699.75812,-2548.42
700.23254,-2462.69
700.70697,-2512.8
701.1814,-2482.74
701.65582,-2479.29
702.13025,-2585.77
702.60468,-2571.11
703.07904,-2459.29
703.55347,-2464.04
704.02789,-2432.08
704.50232,-2345.65
704.97675,-2452.3
705.45117,-2416.9
705.9256,-2433.28
706.40002,-2522.58
706.87439,-2510.99
707.34882,-2501.25
707.82324,-2478.22
708.29767,-2478.82
708.77209,-2495.59
709.24652,-2375.28
709.72095,-2321.75
710.19537,-2472.01
710.66974,-2556.55
711.14417,-2407.84
711.61859,-2511.42
712.09302,-2527.74
712.56744,-2526.91
713.04187,-2490.54
713.5163,-2453.26
713.99072,-2514.14
714.46509,-2464.43
714.93951,-2421
715.41394,-2415.56
715.88837,-2486.62
716.36279,-2447.28
716.83722,-2340.8
717.31165,-2463.88
717.78607,-2549.68
718.26044,-2569.62
718.73486,-2563.08
719.20929,-2594.71
719.68372,-2651.99
720.15814,-2524.26
720.63257,-2468.52
721.10699,-2688.32
721.58142,-2673.35
722.05579,-2351.06
722.53021,-2393.92
723.00464,-2556.41
723.47906,-2460.44
723.95349,-2429.26
724.42792,-2475.33
724.90234,-2469.03
725.37677,-2345.19
725.85114,-2456.69
726.32556,-2554.38
726.79999,-2413.24
727.27441,-2476.66
727.74884,-2583.07
728.22327,-2659.64
728.69769,-2631.23
729.17212,-2633.84
729.64648,-2579.49
730.12091,-2383.76
730.59534,-2421.54
731.06976,-2383.6
731.54419,-2340.35
732.01862,-2378.31
732.49304,-2626.57
732.96747,-2643.22
733.44183,-2381.12
733.91626,-2557.01
734.39069,-2354.17
734.86511,-2340.59
735.33954,-2629.25
735.81396,-2570.14
736.28839,-2402.75
736.76282,-2470.7
737.23718,-2542.18
737.71161,-2497.55
738.18604,-2535.59
738.66046,-2417.06
739.13489,-2627.17
739.60931,-2669.54
740.08374,-2419.2
740.55817,-2542.3
741.03253,-2615.43
741.50696,-2550.88
741.98138,-2564.38
742.45581,-2430.36
742.93024,-2374.49
743.40466,-2448.43
743.87909,-2580.88
744.35345,-2655.58
744.82788,-2498.02
745.30231,-2461.41
745.77673,-2409.09
746.25116,-2522.88
746.72559,-2532.63
747.20001,-2265.13
747.67444,-2431.29
748.1488,-2597.19
748.62323,-2472.26
749.09766,-2534.34
749.57208,-2525.57
750.04651,-2645.8
750.52094,-2598.93
750.99536,-2493.72
751.46979,-2645.57
751.94415,-2469.39
752.41858,-2417.54
752.89301,-2466.16
753.36743,-2532.6
753.84186,-2544.88
754.31628,-2479.4
754.79071,-2337.98
755.26514,-2446.82
755.7395,-2612.92
756.21393,-2492.52
756.68835,-2520.27
757.16278,-2529.36
757.63721,-2522.77
758.11163,-2619.31
758.58606,-2565.75
759.06049,-2477.52
759.53485,-2514.09
760.00928,-2518.13
760.4837,-2618.86
760.95813,-2475.41
761.43256,-2497.7
761.90698,-2618.77
762.38141,-2463.51
762.85583,-2449.68
763.3302,-2584.32
763.80463,-2516.74
764.27905,-2508.07
764.75348,-2463.43
765.22791,-2596.16
765.70233,-2606.16
766.17676,-2488.41
766.65118,-2502.94
767.12555,-2487.35
767.59998,-2226.91
768.0744,-2517.83
768.54883,-2537.74
769.02325,-2485.99
769.49768,-2538.31
769.97211,-2309.2
770.44653,-2460.3
770.9209,-2589.45
771.39532,-2507.67
771.86975,-2527.07
772.34418,-2469.5
772.8186,-2461.08
773.29303,-2591.73
773.76746,-2593.41
774.24188,-2475.46
774.71625,-2367.13
775.19067,-2422.1
775.6651,-2367.72
776.13953,-2508.45
776.61395,-2663.24
777.08838,-2477.68
777.56281,-2534.24
778.03723,-2542.17
778.5116,-2593.64
778.98602,-2603.42
779.46045,-2620.18
779.93488,-2616.1
780.4093,-2527.93
780.88373,-2577.52
781.35815,-2573.38
781.83258,-2356.64
782.30695,-2466.9
782.78137,-2572.77
783.2558,-2532.87
783.73022,-2580.35
784.20465,-2425.58
784.67908,-2571.51
785.1535,-2695.31
785.62793,-2544.89
786.10229,-2738.11
786.57672,-2462.5
787.05115,-2380.31
787.52557,-2534.3
788,-2600.21
788.47443,-2569.58
788.94885,-2583.01
789.42328,-2762.19
789.89764,-2698.36
790.37207,-2524.74
790.8465,-2512.24
791.32092,-2500.52
791.79535,-2629.73
792.26978,-2686.54
792.7442,-2648.63
793.21863,-2558.41
793.69299,-2413.89
794.16742,-2472.39
794.64185,-2610.54
795.11627,-2807.79
795.5907,-2643.06
796.06512,-2453.01
796.53955,-2564.22
797.01398,-2310.42
797.48834,-2604.05
797.96277,-2498.27
798.43719,-2256.39
798.91162,-2278.46
799.38605,-2553.51
799.86047,-2541.58
800.3349,-2420.41
800.80933,-2534.8
801.28369,-2513.67
801.75812,-2472
802.23254,-2601.94
802.70697,-2641.44
803.1814,-2504.42
803.65582,-2576.59
804.13025,-2762.41
804.60468,-2411.94
805.07904,-2352.66
805.55347,-2433.57
806.02789,-2564.15
806.50232,-2451.91
806.97675,-2286.08
807.45117,-2404.95
807.9256,-2619.39
808.40002,-2637.72
808.87439,-2463.11
809.34882,-2442.5
809.82324,-2568.86
810.29767,-2544.55
810.77209,-2498.99
811.24652,-2633.7
811.72095,-2659.71
812.19537,-2499.67
812.66974,-2770.52
813.14417,-2477.29
813.61859,-2144.56
814.09302,-1889.79
814.56744,-1573.35
815.04187,-1453.91
815.5163,-1345.44
815.99072,-1403.36
816.46509,-1620.92
816.93951,-1930.99
817.41394,-2233.95
817.88837,-2420.53
818.36279,-2534.25
818.83722,-2611.61
819.31165,-2396.83
819.78607,-2612.86
820.26044,-2581.79
820.73486,-2339.81
821.20929,-2434.8
821.68372,-2548.68
822.15814,-2597.39
822.63257,-2635.06
823.10699,-2495.96
823.58142,-2503.71
824.05579,-2518.19
824.53021,-2638.25
825.00464,-2497.36
825.47906,-2652.58
825.95349,-2614.02
826.42792,-2523.02
826.90234,-2591.9
827.37677,-2563.1
827.85114,-2461.54
828.32556,-2490.08
828.79999,-2482.69
829.27441,-2387.51
829.74884,-2354.49
830.22327,-2225.42
830.69769,-2384.72
831.17212,-2279.24
831.64648,-2239.93
832.12091,-2428.22
