Date and Time:                Mon Jan 17 20:30:06.000 2022
Software Version:             4.31.30023.0
Temperature (C):              -50
Model:                        DU420_BVF
Data Type:                    Counts (Bg Corrected)
Acquisition Mode:             Accumulate
Trigger Mode:                 Internal
Exposure Time (secs):         0.09999
Accumulate Cycle Time (secs): 0.09999
Frequency (Hz):               10.001
Number of Accumulations:      1000
Readout Mode:                 Full Vertical Binning
Horizontal binning:           1
Extended Dynamic Range:       off
Horizontally flipped:         false
Vertical Shift Speed (usecs): 8.25
Pixel Readout Time (usecs):   30.303
Serial Number:                22942
Pre-Amplifier Gain:           1.000000
Spurious Noise Filter Mode:   No Filter
Photon counted:               false
Data Averaging Filter Mode:   No Filter
KY328i:
Serial Number:                
Wavelength (nm):              889.526
Grating Groove Density (l/mm):150.012
Grating Blaze:                500nm
Output Flipper Port:          Direct
Filter:                       6-785 LP



380,-2092.23
380.4744,-1997.58
380.94882,-2077.6
381.42325,-2097.06
381.89767,-2170.93
382.37207,-2146.33
382.8465,-1983.61
383.32092,-2091.9
383.79535,-2320.68
384.26974,-2259.07
384.74417,-2104.61
385.2186,-2192.16
385.69302,-2238.5
386.16742,-2168.84
386.64185,-2287.23
387.11627,-2035.18
387.5907,-2052.06
388.06509,-2093.12
388.53952,-2133.96
389.01395,-2068.13
389.48837,-2009.63
389.96277,-2066.39
390.43719,-2058.57
390.91162,-1993.92
391.38605,-2054.05
391.86044,-2081.83
392.33487,-2077.54
392.8093,-2221.34
393.28372,-1964.74
393.75812,-2013.44
394.23254,-2086.1
394.70697,-2122.39
395.1814,-2049
395.65579,-2020.81
396.13022,-2086.44
396.60464,-2053.69
397.07907,-2064.27
397.55347,-2096.31
398.02789,-2072.41
398.50232,-2163.06
398.97675,-2125.95
399.45114,-2013.47
399.92557,-2059.82
400.39999,-2015.12
400.87442,-1873.7
401.34882,-1950.62
401.82324,-2045.12
402.29767,-2195.71
402.77209,-2121.73
403.24649,-1947.35
403.72092,-2039.05
404.19534,-2108.49
404.66977,-2205.88
405.14417,-2022.71
405.61859,-2018.1
406.09302,-2044.02
406.56744,-2046.09
407.04184,-1983.46
407.51627,-1832.54
407.99069,-1272.71
408.46512,-544.714
408.93951,-105.226
409.41394,370.577
409.88837,454.978
410.36279,97.0774
410.83719,-425.449
411.31161,-1077.58
411.78604,-1674.2
412.26047,-1736.2
412.73486,-1914.45
413.20929,-2009.52
413.68372,-2017.96
414.15814,-1925.08
414.63254,-1843.4
415.10696,-1932.84
415.58139,-1936.33
416.05582,-2085.09
416.53021,-2100.91
417.00464,-2062.65
417.47906,-2027.61
417.95349,-2194.03
418.42789,-2269.76
418.90231,-2081.19
419.37674,-2054.88
419.85117,-1960.31
420.32556,-2002.81
420.79999,-1982.77
421.27441,-1940.51
421.74884,-2185.03
422.22324,-2049.02
422.69766,-1932.98
423.17209,-2148.82
423.64651,-2059.23
424.12091,-2190.4
424.59534,-2079.04
425.06976,-2019.98
425.54419,-2125.36
426.01859,-1957.07
426.49301,-2032.06
426.96744,-2069.44
427.44186,-1928.85
427.91626,-2098.01
428.39069,-2191.44
428.86511,-2036.51
429.33954,-2024.18
429.81393,-2106.83
430.28836,-2118.08
430.76279,-1973.01
431.23721,-1920.74
431.71161,-2155.83
432.18604,-2164.37
432.66046,-2163.17
433.13489,-2318.64
433.60928,-1974.72
434.08371,-2037.3
434.55814,-2175.24
435.03256,-2060.41
435.50696,-2047.83
435.98138,-1977.93
436.45581,-1968.32
436.93024,-2136.75
437.40463,-2066.69
437.87906,-1968.59
438.35349,-1975.34
438.82791,-2032.45
439.30231,-1995.97
439.77673,-1803.7
440.25116,-1752.16
440.72559,-1797.18
441.19998,-2118.29
441.67441,-2231.55
442.14883,-2035.41
442.62326,-2023.95
443.09766,-2072.51
443.57208,-1994.67
444.04651,-1862.64
444.52094,-1835.29
444.99533,-1938.85
445.46976,-1993.9
445.94418,-1971.98
446.41861,-2011.69
446.89301,-2173.12
447.36743,-2054.64
447.84186,-2070.85
448.31628,-2046.25
448.79068,-1897.17
449.26511,-2101.76
449.73953,-2075.74
450.21396,-1888.28
450.68835,-2041.12
451.16278,-2041.2
451.63721,-2105.84
452.11163,-2138.43
452.58603,-2098.99
453.06046,-2171.85
453.53488,-2129.64
454.00931,-2025.74
454.4837,-2225.45
454.95813,-2149.5
455.43256,-1973.69
455.90698,-2002.63
456.38138,-2011.91
456.8558,-2033.74
457.33023,-2106.11
457.80466,-2005.13
458.27905,-2007.92
458.75348,-2202.11
459.22791,-2091.99
459.70233,-2055.53
460.17673,-1918.65
460.65115,-1851.75
461.12558,-1987.14
461.60001,-1829.85
462.0744,-1920.77
462.54883,-2124.01
463.02325,-2163.63
463.49768,-2061.59
463.97208,-1911.33
464.4465,-2090.08
464.92093,-2161.88
465.39536,-2119.66
465.86975,-1993.87
466.34418,-1975.5
466.8186,-1987.32
467.29303,-2006.83
467.76743,-2052.72
468.24185,-2073.57
468.71628,-1967.05
469.1907,-1900.2
469.6651,-1991.77
470.13953,-1965.49
470.61395,-2071.73
471.08838,-2220.34
471.56277,-1925.64
472.0372,-1955.31
472.51163,-2040.22
472.98605,-2060.43
473.46045,-2089.56
473.93488,-2003.13
474.4093,-1977.94
474.88373,-2003.68
475.35812,-2076.26
475.83255,-2162.68
476.30698,-2052.71
476.7814,-2084.73
477.2558,-2092.62
477.73022,-2026.5
478.20465,-2072.2
478.67908,-2012.01
479.15347,-1981.93
479.6279,-2093.9
480.10233,-2035.98
480.57675,-1949.01
481.05115,-2063.99
481.52557,-2165.83
482,-2148.16
482.47443,-2091.62
482.94882,-2132.65
483.42325,-2077.1
483.89767,-2026.08
484.3721,-2006.94
484.8465,-2052.4
485.32092,-2174.68
485.79535,-2120.29
486.26978,-2184.36
486.74417,-2138.01
487.2186,-2029.21
487.69302,-2055.77
488.16745,-2021.92
488.64185,-2019.75
489.11627,-2086.74
489.5907,-2090.11
490.06512,-2056.02
490.53952,-2116.82
491.01395,-2079.03
491.48837,-2088.13
491.9628,-2131.92
492.43719,-2181.12
492.91162,-2061.54
493.38605,-2044.39
493.86047,-2089.93
494.33487,-1958.44
494.8093,-2006.52
495.28372,-2073.06
495.75815,-2150.12
496.23254,-2145.34
496.70697,-2093.2
497.1814,-2093.65
497.65582,-2156.77
498.13022,-2137.51
498.60464,-2153.7
499.07907,-2008.9
499.5535,-1936.43
500.02789,-2121.1
500.50232,-2125.57
500.97675,-2084.89
501.45114,-2125.92
501.92557,-2118.78
502.39999,-2120.91
502.87442,-2203.81
503.34882,-2092.5
503.82324,-2164.07
504.29767,-2133.33
504.77209,-2004.12
505.24649,-2167.34
505.72092,-2063.34
506.19534,-2203.59
506.66977,-2161.55
507.14417,-2022.86
507.61859,-2158.7
508.09302,-2210.05
508.56744,-2048.05
509.04184,-2011.06
509.51627,-2130.21
509.99069,-2204.35
510.46512,-2090.8
510.93951,-2076.76
511.41394,-2328.37
511.88837,-2104.78
512.36279,-2038.7
512.83722,-2086.22
513.31165,-2082.96
513.78601,-1965.55
514.26044,-2139.62
514.73486,-2209.08
515.20929,-2067.47
515.68372,-2105.93
516.15814,-2237.13
516.63257,-2255.48
517.10699,-2239.67
517.58136,-2267.19
518.05579,-2229.05
518.53021,-2107.13
519.00464,-2304.81
519.47906,-2295.8
519.95349,-2029.94
520.42792,-2071.02
520.90234,-2064.51
521.37671,-2114.89
521.85114,-2146.45
522.32556,-2080.71
522.79999,-2175.78
523.27441,-2207.38
523.74884,-2198.81
524.22327,-2169.98
524.69769,-1842.14
525.17206,-2120.43
525.64648,-2281.61
526.12091,-2123.4
526.59534,-1977.36
527.06976,-2006.53
527.54419,-2096.78
528.01862,-2100.15
528.49304,-2052.25
528.96741,-2240.88
529.44183,-2387.16
529.91626,-2184.8
530.39069,-1999.15
530.86511,-2079.51
531.33954,-2313.2
531.81396,-1978.48
532.28839,-2125.2
532.76276,-2010.28
533.23718,-2025.37
533.71161,-2204.75
534.18604,-2207.49
534.66046,-2123.47
535.13489,-2063.66
535.60931,-2171.8
536.08374,-2187.27
536.55811,-2125.67
537.03253,-2100.3
537.50696,-2062.84
537.98138,-2067.2
538.45581,-2136.04
538.93024,-2162.56
539.40466,-2126
539.87909,-2075.88
540.35345,-2200.78
540.82788,-2225.89
541.30231,-2196.46
541.77673,-2236.91
542.25116,-2074.95
542.72559,-2024.78
543.20001,-2077.62
543.67444,-1990.65
544.1488,-2031.97
544.62323,-2008.83
545.09766,-1970.07
545.57208,-1963.13
546.04651,-1942.63
546.52094,-2011.59
546.99536,-2005.68
547.46979,-1937.33
547.94415,-2013.98
548.41858,-2015.12
548.89301,-1888.32
549.36743,-1958.46
549.84186,-1982.83
550.31628,-1913.36
550.79071,-2102.89
551.26514,-2013.41
551.7395,-1953.95
552.21393,-2013.76
552.68835,-1937.16
553.16278,-2173.18
553.63721,-2277.57
554.11163,-2034.13
554.58606,-1975.99
555.06049,-1985.31
555.53485,-2106.43
556.00928,-2076.97
556.4837,-2106.7
556.95813,-2077.84
557.43256,-2026.7
557.90698,-1928.18
558.38141,-2134.99
558.85583,-2178.5
559.3302,-2018.26
559.80463,-1941.35
560.27905,-1940.03
560.75348,-2101.56
561.22791,-2154.65
561.70233,-2088.79
562.17676,-2055.75
562.65118,-2005.52
563.12555,-1901.59
563.59998,-2065.64
564.0744,-2085.93
564.54883,-1956.59
565.02325,-1963.28
565.49768,-2018.27
565.97211,-1980.48
566.44653,-2159.25
566.9209,-2136.42
567.39532,-1816.45
567.86975,-2031.66
568.34418,-1947.61
568.8186,-2048.3
569.29303,-2095.15
569.76746,-2032.85
570.24188,-1937.64
570.71625,-1943.21
571.19067,-1945.11
571.6651,-1916.65
572.13953,-1944.39
572.61395,-1928.41
573.08838,-1955.97
573.56281,-2021.76
574.03723,-1937.05
574.5116,-1918.7
574.98602,-2154.17
575.46045,-2057.74
575.93488,-1959.32
576.4093,-2042.94
576.88373,-1965.07
577.35815,-1869.96
577.83258,-2039.45
578.30695,-2106.14
578.78137,-1913.13
579.2558,-1907.09
579.73022,-2134.94
580.20465,-2072.16
580.67908,-1944.19
581.1535,-2055.87
581.62793,-1907.75
582.10229,-2040.72
582.57672,-2002.29
583.05115,-2038.84
583.52557,-1895.42
584,-1840.71
584.47443,-1991.88
584.94885,-2093.75
585.42328,-2075.03
585.89764,-1849.83
586.37207,-1839.78
586.8465,-2003.76
587.32092,-1844.72
587.79535,-2018.47
588.26978,-2039.38
588.7442,-1803.45
589.21863,-1905.1
589.69299,-2066.32
590.16742,-2126.27
590.64185,-1999.09
591.11627,-1969.73
591.5907,-1945.29
592.06512,-1841.07
592.53955,-1939.17
593.01398,-1949.8
593.48834,-1924.21
593.96277,-2097.96
594.43719,-2087.12
594.91162,-1946.76
595.38605,-2003.35
595.86047,-2122.34
596.3349,-2010.69
596.80933,-2024.39
597.28369,-1984.92
597.75812,-1913.02
598.23254,-2061.16
598.70697,-2112.86
599.1814,-2023.85
599.65582,-1875.11
600.13025,-1807.17
600.60468,-1956.31
601.07904,-1986.21
601.55347,-1958.72
602.02789,-2070.45
602.50232,-2000.75
602.97675,-2036.2
603.45117,-2082
603.9256,-1914.07
604.40002,-1983.51
604.87439,-2056.62
605.34882,-2039.29
605.82324,-1991.82
606.29767,-1988.12
606.77209,-1983.38
607.24652,-1936.23
607.72095,-1975.6
608.19537,-1893.15
608.66974,-2092.17
609.14417,-2017.53
609.61859,-1949.56
610.09302,-2077.24
610.56744,-2040.52
611.04187,-2005.16
611.5163,-1882.18
611.99072,-1867.16
612.46509,-1901.44
612.93951,-1943.8
613.41394,-2022.93
613.88837,-1941.69
614.36279,-1822.83
614.83722,-1916.08
615.31165,-1877.04
615.78607,-1879.31
616.26044,-1936.42
616.73486,-1878.3
617.20929,-1790.99
617.68372,-1803.38
618.15814,-1998.75
618.63257,-2111.75
619.10699,-1966.36
619.58142,-1874.57
620.05579,-1878.88
620.53021,-1964.85
621.00464,-2143.5
621.47906,-1843.67
621.95349,-1807.6
622.42792,-1826.92
622.90234,-1852.79
623.37671,-2041.22
623.85114,-1836.04
624.32556,-1853.16
624.79999,-1996.1
625.27441,-1987.72
625.74884,-2039.74
626.22327,-2032.78
626.69769,-1952.23
627.17206,-2076.19
627.64648,-1990.28
628.12091,-1977.72
628.59534,-2228.72
629.06976,-2113.14
629.54419,-1898.1
630.01862,-1981.43
630.49304,-2060.1
630.96741,-2032.62
631.44183,-1999.11
631.91626,-2077.96
632.39069,-2043.44
632.86511,-1916.95
633.33954,-2096.72
633.81396,-2018.32
634.28839,-2014.62
634.76276,-2015.92
635.23718,-2011.26
635.71161,-2104.67
636.18604,-2042.53
636.66046,-2030.83
637.13489,-1990.39
637.60931,-1975.28
638.08374,-2053.63
638.55811,-2151.18
639.03253,-2101.01
639.50696,-1975.7
639.98138,-2091.82
640.45581,-2118.23
640.93024,-2028.49
641.40466,-2028.53
641.87909,-2110.54
642.35345,-2178.2
642.82788,-2206.99
643.30231,-2218.69
643.77673,-2142.17
644.25116,-2138.82
644.72559,-2031.56
645.20001,-2087.7
645.67444,-2059.29
646.1488,-1996.11
646.62323,-1985.18
647.09766,-2261.09
647.57208,-2169.89
648.04651,-2024.92
648.52094,-2265.61
648.99536,-2146.85
649.46979,-2039.72
649.94415,-2010.11
650.41858,-1918.55
650.89301,-2102.2
651.36743,-2033.9
651.84186,-2205.41
652.31628,-2064.59
652.79071,-2052.86
653.26514,-2215.19
653.7395,-2106.28
654.21393,-1937.53
654.68835,-2034.36
655.16278,-2176.01
655.63721,-2048.06
656.11163,-1964.6
656.58606,-2002.17
657.06049,-2099.92
657.53485,-2146.75
658.00928,-2229.91
658.4837,-2289.33
658.95813,-1903.89
659.43256,-2114.59
659.90698,-2155.02
660.38141,-2013.14
660.85583,-2137.12
661.3302,-2063.1
661.80463,-2177.89
662.27905,-2260.37
662.75348,-2245.67
663.22791,-2316.15
663.70233,-2139.95
664.17676,-1923.48
664.65118,-2002.96
665.12555,-2170.33
665.59998,-2165.55
666.0744,-2151.92
666.54883,-2114.17
667.02325,-2167.97
667.49768,-2192.01
667.97211,-2133.15
668.44653,-2102.02
668.9209,-1952.73
669.39532,-2128.67
669.86975,-2112.73
670.34418,-1967.51
670.8186,-2070.97
671.29303,-2127.38
671.76746,-1947.16
672.24188,-2052.79
672.71625,-2100
673.19067,-2113.95
673.6651,-2287.63
674.13953,-2127.95
674.61395,-2008.84
675.08838,-2159.19
675.56281,-2217.34
676.03723,-2035.06
676.5116,-2147.45
676.98602,-2203.17
677.46045,-2055.98
677.93488,-2082.48
678.4093,-2219.86
678.88373,-2132.37
679.35815,-2061.3
679.83258,-2086.5
680.30695,-2046.16
680.78137,-2168.67
681.2558,-2163.6
681.73022,-2005.18
682.20465,-2056.21
682.67908,-2134.45
683.1535,-2129.49
683.62793,-2207.77
684.10229,-2087.89
684.57672,-2031.84
685.05115,-2004.54
685.52557,-2134.7
686,-2243.58
686.47443,-2084.62
686.94885,-2058.54
687.42328,-2151.73
687.89764,-2139.46
688.37207,-2104.02
688.8465,-2073.6
689.32092,-2149.4
689.79535,-2132.26
690.26978,-1993.44
690.7442,-2006.43
691.21863,-2185.46
691.69299,-2270.89
692.16742,-2158.24
692.64185,-2136.76
693.11627,-2149.36
693.5907,-2109.65
694.06512,-2117.07
694.53955,-1996.48
695.01398,-2160.4
695.48834,-2107.79
695.96277,-2136.29
696.43719,-2157.18
696.91162,-2108.16
697.38605,-2046.08
697.86047,-2020.24
698.3349,-2171.82
698.80933,-2214.72
699.28369,-2143.89
699.75812,-2157.03
700.23254,-2145.22
700.70697,-2216.23
701.1814,-2095.25
701.65582,-2156.33
702.13025,-2221.45
702.60468,-2167.02
703.07904,-2108.82
703.55347,-2099.72
704.02789,-2110.11
704.50232,-2009.04
704.97675,-2094.04
705.45117,-2095.67
705.9256,-2120.72
706.40002,-2167.77
706.87439,-2130.01
707.34882,-2162.46
707.82324,-2125.03
708.29767,-2123.73
708.77209,-2259.9
709.24652,-2191.52
709.72095,-2019.8
710.19537,-2135.46
710.66974,-2246.71
711.14417,-2113.01
711.61859,-2197.99
712.09302,-2199.58
712.56744,-2160.78
713.04187,-2018.8
713.5163,-2100.62
713.99072,-2198.61
714.46509,-2073.11
714.93951,-2131.79
715.41394,-2137.12
715.88837,-2114.49
716.36279,-2167.21
716.83722,-2071
717.31165,-2133.84
717.78607,-2265.31
718.26044,-2256.36
718.73486,-2165.45
719.20929,-2122.94
719.68372,-2196.24
720.15814,-2295.23
720.63257,-2132.84
721.10699,-2271.4
721.58142,-2241.57
722.05579,-2082.3
722.53021,-2185.53
723.00464,-2177.78
723.47906,-2208.3
723.95349,-2203.6
724.42792,-2185.14
724.90234,-2088.5
725.37677,-2054.07
725.85114,-2159.05
726.32556,-2238.12
726.79999,-2052.78
727.27441,-2193.96
727.74884,-2326.47
728.22327,-2194.99
728.69769,-2136.83
729.17212,-2278.35
729.64648,-2291.98
730.12091,-2133.46
730.59534,-2089.63
731.06976,-2090.39
731.54419,-2097.42
732.01862,-2066.65
732.49304,-2239.1
732.96747,-2274.02
733.44183,-2090.59
733.91626,-2203.35
734.39069,-2038.83
734.86511,-1964.55
735.33954,-2280.98
735.81396,-2256.06
736.28839,-2063.93
736.76282,-2113.82
737.23718,-2171.2
737.71161,-2234.5
738.18604,-2113.62
738.66046,-2136.65
739.13489,-2256.64
739.60931,-2311.27
740.08374,-2205.4
740.55817,-2261.87
741.03253,-2309.49
741.50696,-2135.72
741.98138,-2248.32
742.45581,-2342.12
742.93024,-2179.78
743.40466,-2133.22
743.87909,-2168
744.35345,-2171.9
744.82788,-2224.28
745.30231,-2199.5
745.77673,-2163.95
746.25116,-2141.01
746.72559,-2168.76
747.20001,-2085.13
747.67444,-2131.4
748.1488,-2282.92
748.62323,-2151.08
749.09766,-2043.53
749.57208,-2235.42
750.04651,-2317.19
750.52094,-2161.75
750.99536,-2157.18
751.46979,-2355.14
751.94415,-2294.85
752.41858,-2030.3
752.89301,-2251.31
753.36743,-2128.49
753.84186,-2054.03
754.31628,-2090.07
754.79071,-2243.28
755.26514,-2169.3
755.7395,-2137.14
756.21393,-2299.97
756.68835,-2151.39
757.16278,-2337.35
757.63721,-2275.83
758.11163,-2130.88
758.58606,-2114.66
759.06049,-2177.77
759.53485,-2196.7
760.00928,-2287.22
760.4837,-2233.98
760.95813,-2109.33
761.43256,-2213.03
761.90698,-2250.79
762.38141,-2215.48
762.85583,-2285.22
763.3302,-2215.54
763.80463,-2093.17
764.27905,-2155.71
764.75348,-2227.63
765.22791,-2159.88
765.70233,-2209.57
766.17676,-2151.48
766.65118,-2090.52
767.12555,-2031.67
767.59998,-1911.25
768.0744,-2120.42
768.54883,-2033.29
769.02325,-2008.66
769.49768,-2097.62
769.97211,-2039.66
770.44653,-2269.22
770.9209,-2259.14
771.39532,-2154.42
771.86975,-2107.46
772.34418,-2057.6
772.8186,-2051.58
773.29303,-2206.66
773.76746,-2181.09
774.24188,-2054.94
774.71625,-2097.51
775.19067,-2159.02
775.6651,-2084.06
776.13953,-2247.68
776.61395,-2269.7
777.08838,-2045.14
777.56281,-2161.5
778.03723,-2156.79
778.5116,-2314.13
778.98602,-2159.94
779.46045,-2196.13
779.93488,-2238.67
780.4093,-2162.54
780.88373,-2233.97
781.35815,-2209.03
781.83258,-1989.48
782.30695,-2106.4
782.78137,-2201.88
783.2558,-2196.56
783.73022,-2233.86
784.20465,-2126.28
784.67908,-2299.73
785.1535,-2195.49
785.62793,-2087.89
786.10229,-2345.91
786.57672,-2216.82
787.05115,-2132.08
787.52557,-2309.91
788,-2301.41
788.47443,-2132.06
788.94885,-2143.41
789.42328,-2340.11
789.89764,-2336.97
790.37207,-2168.08
790.8465,-2264.67
791.32092,-2215.78
791.79535,-2167.34
792.26978,-2187.64
792.7442,-2220.57
793.21863,-2321.04
793.69299,-2273.24
794.16742,-2072.46
794.64185,-2167.56
795.11627,-2410.56
795.5907,-2188.57
796.06512,-2024.77
796.53955,-2206.62
797.01398,-2052.22
797.48834,-2209.62
797.96277,-2080.74
798.43719,-1916.57
798.91162,-1986.33
799.38605,-2147.71
799.86047,-2134.35
800.3349,-2088.57
800.80933,-2173.35
801.28369,-2174.95
801.75812,-2152.42
802.23254,-2240.91
802.70697,-2197.83
803.1814,-2118.71
803.65582,-2257.05
804.13025,-2206.23
804.60468,-1920.5
805.07904,-1996.75
805.55347,-2173.32
806.02789,-2110.29
806.50232,-2247.43
806.97675,-2102.71
807.45117,-2022.53
807.9256,-2197.95
808.40002,-2149.12
808.87439,-2105.62
809.34882,-2064.6
809.82324,-2072.27
810.29767,-2029.17
810.77209,-2104.72
811.24652,-2199.18
811.72095,-2273.7
812.19537,-2228.31
812.66974,-2354.51
813.14417,-2020.57
813.61859,-1692.77
814.09302,-1577.99
814.56744,-1251.98
815.04187,-850.94
815.5163,-712.469
815.99072,-879.772
816.46509,-1081.92
816.93951,-1402.83
817.41394,-1905.8
817.88837,-2109.01
818.36279,-2169.65
818.83722,-2199.95
819.31165,-2243.14
819.78607,-2236.51
820.26044,-2130
820.73486,-2139.13
821.20929,-2179.5
821.68372,-2149.18
822.15814,-2201.39
822.63257,-2233.47
823.10699,-2088.01
823.58142,-2126.32
824.05579,-2313.52
824.53021,-2196.61
825.00464,-2034.96
825.47906,-2080.02
825.95349,-2277.2
826.42792,-2132.4
826.90234,-2242.68
827.37677,-2263.72
827.85114,-2223.57
828.32556,-2223.07
828.79999,-2106.04
829.27441,-1995.76
829.74884,-1908
830.22327,-2000.43
830.69769,-1878.42
831.17212,-1887.24
831.64648,-2027.6
832.12091,-2076.51
832.59534,-2185.82
