Date and Time:                Mon Jan 17 22:25:08.000 2022
Software Version:             4.31.30023.0
Temperature (C):              -50
Model:                        DU420_BVF
Data Type:                    Counts (Bg Corrected)
Acquisition Mode:             Accumulate
Trigger Mode:                 Internal
Exposure Time (secs):         0.09999
Accumulate Cycle Time (secs): 0.09999
Frequency (Hz):               10.001
Number of Accumulations:      1000
Readout Mode:                 Full Vertical Binning
Horizontal binning:           1
Extended Dynamic Range:       off
Horizontally flipped:         false
Vertical Shift Speed (usecs): 8.25
Pixel Readout Time (usecs):   30.303
Serial Number:                22942
Pre-Amplifier Gain:           1.000000
Spurious Noise Filter Mode:   No Filter
Photon counted:               false
Data Averaging Filter Mode:   No Filter
KY328i:
Serial Number:                
Wavelength (nm):              889.526
Grating Groove Density (l/mm):150.012
Grating Blaze:                500nm
Output Flipper Port:          Direct
Filter:                       6-785 LP



380,-2764.41
380.4744,-2722.4
380.94882,-2815.64
381.42325,-2831.52
381.89767,-2807.28
382.37207,-2790.76
382.8465,-2737.94
383.32092,-2794.43
383.79535,-2881.43
384.26974,-2718.98
384.74417,-2732.4
385.2186,-2852.95
385.69302,-2897.31
386.16742,-2944.21
386.64185,-2697.16
387.11627,-2671.2
387.5907,-2714.16
388.06509,-2843.93
388.53952,-2734.17
389.01395,-2564.65
389.48837,-2538.18
389.96277,-2609.77
390.43719,-2730.71
390.91162,-2759.08
391.38605,-2763.05
391.86044,-2736.97
392.33487,-2732.63
392.8093,-2843.36
393.28372,-2637.95
393.75812,-2666.13
394.23254,-2739.38
394.70697,-2662.73
395.1814,-2621.33
395.65579,-2577.6
396.13022,-2520.74
396.60464,-2487.61
397.07907,-2576.06
397.55347,-2647.08
398.02789,-2539.41
398.50232,-2618.91
398.97675,-2663.65
399.45114,-2637.15
399.92557,-2653.51
400.39999,-2622.85
400.87442,-2595.12
401.34882,-2663.17
401.82324,-2626.17
402.29767,-2596.72
402.77209,-2530.89
403.24649,-2571.79
403.72092,-2657.9
404.19534,-2582.39
404.66977,-2673.98
405.14417,-2417.6
405.61859,-2702.59
406.09302,-2581.74
406.56744,-2243.56
407.04184,1745.76
407.51627,14296.5
407.99069,33323.6
408.46512,50874.2
408.93951,61133
409.41394,64155.1
409.88837,61641.9
410.36279,49559
410.83719,28636.5
411.31161,10813
411.78604,1618.53
412.26047,-1567.19
412.73486,-2384.47
413.20929,-2545.7
413.68372,-2543.14
414.15814,-2575.91
414.63254,-2583.6
415.10696,-2683.69
415.58139,-2832.3
416.05582,-2669.37
416.53021,-2696.38
417.00464,-2820.75
417.47906,-2726.13
417.95349,-2770.03
418.42789,-2806.84
418.90231,-2716.39
419.37674,-2760.49
419.85117,-2678.87
420.32556,-2700.77
420.79999,-2673.3
421.27441,-2630.33
421.74884,-2792.25
422.22324,-2639.06
422.69766,-2611.82
423.17209,-2850.28
423.64651,-2601.87
424.12091,-2610.7
424.59534,-2696.49
425.06976,-2775.11
425.54419,-2827.62
426.01859,-2760.61
426.49301,-2747.25
426.96744,-2683.85
427.44186,-2677.68
427.91626,-2852.84
428.39069,-2935.81
428.86511,-2700.97
429.33954,-2670.12
429.81393,-2744.97
430.28836,-2822.99
430.76279,-2889.08
431.23721,-2694.74
431.71161,-2746.81
432.18604,-2917.36
432.66046,-2810.17
433.13489,-2788.05
433.60928,-2823.99
434.08371,-2828.97
434.55814,-2717.88
435.03256,-2711.16
435.50696,-2704.67
435.98138,-2628.39
436.45581,-2659.08
436.93024,-2930.93
437.40463,-2793.19
437.87906,-2594.07
438.35349,-2752.05
438.82791,-2851.46
439.30231,-2628.86
439.77673,-2428.77
440.25116,-2544.08
440.72559,-2605.45
441.19998,-2739.36
441.67441,-2758.17
442.14883,-2598.24
442.62326,-2573.94
443.09766,-2723.99
443.57208,-2615.86
444.04651,-2401.33
444.52094,-2516.38
444.99533,-2654.95
445.46976,-2630.02
445.94418,-2566.57
446.41861,-2630.23
446.89301,-2772.78
447.36743,-2587.86
447.84186,-2747.81
448.31628,-2735.14
448.79068,-2530.63
449.26511,-2781.71
449.73953,-2728.75
450.21396,-2542.4
450.68835,-2715.64
451.16278,-2603.63
451.63721,-2779
452.11163,-2828.46
452.58603,-2701.78
453.06046,-2902.41
453.53488,-2745.98
454.00931,-2483.16
454.4837,-2682.06
454.95813,-2753.56
455.43256,-2673.9
455.90698,-2636.47
456.38138,-2600.56
456.8558,-2661.7
457.33023,-2827.58
457.80466,-2838.22
458.27905,-2705.33
458.75348,-2679.01
459.22791,-2609.88
459.70233,-2638.47
460.17673,-2710.57
460.65115,-2658.69
461.12558,-2810.64
461.60001,-2700.21
462.0744,-2573.29
462.54883,-2714.99
463.02325,-2775.52
463.49768,-2737.75
463.97208,-2661.85
464.4465,-2649.25
464.92093,-2761.36
465.39536,-2764.99
465.86975,-2643.99
466.34418,-2642.64
466.8186,-2668.81
467.29303,-2644.45
467.76743,-2719
468.24185,-2763.19
468.71628,-2628.31
469.1907,-2582.06
469.6651,-2627.15
470.13953,-2662.38
470.61395,-2689.6
471.08838,-2669.91
471.56277,-2552.37
472.0372,-2762.57
472.51163,-2650.87
472.98605,-2561.75
473.46045,-2770.47
473.93488,-2726.61
474.4093,-2550.64
474.88373,-2660.15
475.35812,-2690.74
475.83255,-2618.33
476.30698,-2668.78
476.7814,-2600.61
477.2558,-2586.24
477.73022,-2641.23
478.20465,-2665.21
478.67908,-2606.69
479.15347,-2629.87
479.6279,-2543.97
480.10233,-2546.15
480.57675,-2565.1
481.05115,-2595.39
481.52557,-2645.1
482,-2548.59
482.47443,-2544.78
482.94882,-2663.89
483.42325,-2646.58
483.89767,-2565.43
484.3721,-2517.22
484.8465,-2502.61
485.32092,-2607.01
485.79535,-2629.61
486.26978,-2602.91
486.74417,-2559.25
487.2186,-2480.75
487.69302,-2409.83
488.16745,-2471.65
488.64185,-2513.28
489.11627,-2481.37
489.5907,-2562.77
490.06512,-2486.74
490.53952,-2440.43
491.01395,-2458.1
491.48837,-2436.09
491.9628,-2497.71
492.43719,-2562.46
492.91162,-2429.75
493.38605,-2378.7
493.86047,-2503.13
494.33487,-2422.11
494.8093,-2314.95
495.28372,-2376.08
495.75815,-2405.55
496.23254,-2363.55
496.70697,-2341.47
497.1814,-2269.12
497.65582,-2337.52
498.13022,-2379.46
498.60464,-2377.09
499.07907,-2378.92
499.5535,-2333.59
500.02789,-2267.45
500.50232,-2361.45
500.97675,-2438.55
501.45114,-2444.96
501.92557,-2415
502.39999,-2366.69
502.87442,-2307.22
503.34882,-2317.58
503.82324,-2262.61
504.29767,-2129.58
504.77209,-2220.84
505.24649,-2270.18
505.72092,-2124.8
506.19534,-2238.32
506.66977,-2273.79
507.14417,-2180.38
507.61859,-2266.64
508.09302,-2386.8
508.56744,-2270.52
509.04184,-2162.69
509.51627,-2174.28
509.99069,-2149.76
510.46512,-2136.09
510.93951,-2148.87
511.41394,-2283.63
511.88837,-2115.1
512.36279,-2046.75
512.83722,-2053.25
513.31165,-2035.27
513.78601,-2041.55
514.26044,-2039.38
514.73486,-2180.28
515.20929,-2068.99
515.68372,-1972.46
516.15814,-2085.06
516.63257,-2079.22
517.10699,-2079.06
517.58136,-2012.88
518.05579,-2023.82
518.53021,-2003.65
519.00464,-2121.84
519.47906,-2344.77
519.95349,-2171.4
520.42792,-2004.82
520.90234,-1866.8
521.37671,-1748.72
521.85114,-1891.09
522.32556,-1995.86
522.79999,-2039.92
523.27441,-1927.48
523.74884,-1809.66
524.22327,-1922.81
524.69769,-1621.38
525.17206,-1871.76
525.64648,-1957.08
526.12091,-1781.16
526.59534,-1841.56
527.06976,-1853.88
527.54419,-1782.06
528.01862,-1832.85
528.49304,-1854.83
528.96741,-1949.56
529.44183,-1967.79
529.91626,-1804.74
530.39069,-1826.27
530.86511,-1957.14
531.33954,-1732.87
531.81396,-1693.53
532.28839,-1625.36
532.76276,-1648.21
533.23718,-1659.37
533.71161,-1755.42
534.18604,-1774.71
534.66046,-1715.06
535.13489,-1814.44
535.60931,-1755.15
536.08374,-1694.85
536.55811,-1827.73
537.03253,-1696.27
537.50696,-1519.72
537.98138,-1755.23
538.45581,-1726.63
538.93024,-1647.49
539.40466,-1453.45
539.87909,-1651.68
540.35345,-1950.23
540.82788,-1657.42
541.30231,-1548.3
541.77673,-1794.87
542.25116,-1642.1
542.72559,-1527.39
543.20001,-1510.89
543.67444,-1515.46
544.1488,-1489.92
544.62323,-1471.31
545.09766,-1423.77
545.57208,-1508.11
546.04651,-1492.84
546.52094,-1537.38
546.99536,-1371.07
547.46979,-1312.24
547.94415,-1470.25
548.41858,-1406.84
548.89301,-1511.77
549.36743,-1650.1
549.84186,-1482.85
550.31628,-1483.81
550.79071,-1535.27
551.26514,-1581.19
551.7395,-1697.44
552.21393,-1608.18
552.68835,-1473.55
553.16278,-1645.74
553.63721,-1663.4
554.11163,-1563.57
554.58606,-1553.13
555.06049,-1522.99
555.53485,-1629.74
556.00928,-1582.14
556.4837,-1496.4
556.95813,-1669.51
557.43256,-1752.77
557.90698,-1494.99
558.38141,-1708.05
558.85583,-1563.56
559.3302,-1453.09
559.80463,-1596.25
560.27905,-1500.43
560.75348,-1714.49
561.22791,-1644.52
561.70233,-1486
562.17676,-1530.43
562.65118,-1553.65
563.12555,-1442.88
563.59998,-1603.18
564.0744,-1546.67
564.54883,-1351.03
565.02325,-1322.53
565.49768,-1564.84
565.97211,-1465.59
566.44653,-1442.24
566.9209,-1554.53
567.39532,-1272.22
567.86975,-1429.2
568.34418,-1437.2
568.8186,-1331.05
569.29303,-1473.19
569.76746,-1599.98
570.24188,-1547.64
570.71625,-1369.32
571.19067,-1526.92
571.6651,-1485.06
572.13953,-1360.93
572.61395,-1380.28
573.08838,-1303.94
573.56281,-1368.36
574.03723,-1307.96
574.5116,-1163.13
574.98602,-1300.95
575.46045,-1209.82
575.93488,-1129.91
576.4093,-1303.4
576.88373,-1195.08
577.35815,-1065.17
577.83258,-1277.57
578.30695,-1315.98
578.78137,-1101
579.2558,-1110.18
579.73022,-1224.92
580.20465,-1136.67
580.67908,-1107.45
581.1535,-1189.59
581.62793,-1082.1
582.10229,-1236.43
582.57672,-1149.51
583.05115,-1113.43
583.52557,-933.646
584,-927.372
584.47443,-978.99
584.94885,-1037.95
585.42328,-1143.26
585.89764,-910.535
586.37207,-773.101
586.8465,-796.334
587.32092,-848.658
587.79535,-980.191
588.26978,-925.689
588.7442,-784.601
589.21863,-870.829
589.69299,-867.276
590.16742,-790.263
590.64185,-646.392
591.11627,-715.336
591.5907,-722.505
592.06512,-685.769
592.53955,-874.949
593.01398,-689.034
593.48834,-563.008
593.96277,-740.528
594.43719,-846.481
594.91162,-794.499
595.38605,-659.102
595.86047,-713.834
596.3349,-839.902
596.80933,-940.706
597.28369,-658.064
597.75812,-586.164
598.23254,-795.421
598.70697,-680.624
599.1814,-574.101
599.65582,-530.969
600.13025,-582.545
600.60468,-633.065
601.07904,-639.784
601.55347,-644.901
602.02789,-768.204
602.50232,-641.01
602.97675,-717.708
603.45117,-803.427
603.9256,-625.311
604.40002,-649.888
604.87439,-578.587
605.34882,-692.037
605.82324,-776.461
606.29767,-804.064
606.77209,-876.634
607.24652,-715.667
607.72095,-836.632
608.19537,-875.602
608.66974,-820.441
609.14417,-919.921
609.61859,-921.812
610.09302,-843.473
610.56744,-889.666
611.04187,-860.572
611.5163,-684.886
611.99072,-699.526
612.46509,-877.471
612.93951,-838.916
613.41394,-827.214
613.88837,-773.995
614.36279,-787.964
614.83722,-777.969
615.31165,-716.654
615.78607,-984.046
616.26044,-1095.7
616.73486,-1056.75
617.20929,-1101.01
617.68372,-1026.75
618.15814,-940.453
618.63257,-982.185
619.10699,-1386.81
619.58142,-1248.31
620.05579,-1076.15
620.53021,-1212.23
621.00464,-1228.65
621.47906,-1109.35
621.95349,-1215.27
622.42792,-1156.49
622.90234,-1043.57
623.37671,-1137.25
623.85114,-1120.16
624.32556,-1100.24
624.79999,-1133.34
625.27441,-1123.71
625.74884,-1254.88
626.22327,-1318.51
626.69769,-1152.08
627.17206,-1473.13
627.64648,-1489.06
628.12091,-1336.2
628.59534,-1455.86
629.06976,-1476.27
629.54419,-1367.77
630.01862,-1209.83
630.49304,-1397.85
630.96741,-1397.96
631.44183,-1318.1
631.91626,-1563.88
632.39069,-1357.4
632.86511,-1309.05
633.33954,-1474.79
633.81396,-1477.41
634.28839,-1566.84
634.76276,-1558.6
635.23718,-1574.7
635.71161,-1566.17
636.18604,-1438.01
636.66046,-1604.96
637.13489,-1613.32
637.60931,-1606.31
638.08374,-1547.4
638.55811,-1683.25
639.03253,-1803.24
639.50696,-1612.86
639.98138,-1649.29
640.45581,-1805.21
640.93024,-1689.5
641.40466,-1547.16
641.87909,-1705.39
642.35345,-1811.59
642.82788,-1768.65
643.30231,-1777.1
643.77673,-1648.77
644.25116,-2011.43
644.72559,-1865.55
645.20001,-1806.89
645.67444,-1756.32
646.1488,-1695.56
646.62323,-1732.25
647.09766,-1874.14
647.57208,-1951.26
648.04651,-1852.54
648.52094,-1892.39
648.99536,-2004.23
649.46979,-1865.35
649.94415,-1691.09
650.41858,-1869.63
650.89301,-1941.3
651.36743,-1781.71
651.84186,-1967.65
652.31628,-1866.13
652.79071,-1708.96
653.26514,-1976.06
653.7395,-1997.87
654.21393,-1831.28
654.68835,-1933.29
655.16278,-1940.76
655.63721,-1967.22
656.11163,-1929.32
656.58606,-1951.93
657.06049,-2020.91
657.53485,-2155.67
658.00928,-2064.43
658.4837,-2174.36
658.95813,-1929.85
659.43256,-2022.11
659.90698,-2014.81
660.38141,-1922.43
660.85583,-2040.84
661.3302,-1968.36
661.80463,-2174.85
662.27905,-2378.15
662.75348,-2166.84
663.22791,-2196.19
663.70233,-2169.57
664.17676,-2002.97
664.65118,-1997.61
665.12555,-2108.98
665.59998,-2154.6
666.0744,-2086.07
666.54883,-2097.45
667.02325,-2191.9
667.49768,-2223.04
667.97211,-2189.82
668.44653,-2112.98
668.9209,-2055.82
669.39532,-2162.75
669.86975,-2334.58
670.34418,-2212.08
670.8186,-2186.33
671.29303,-2314.22
671.76746,-2151.88
672.24188,-2235.9
672.71625,-2292.89
673.19067,-2213.47
673.6651,-2318.17
674.13953,-2153.24
674.61395,-2206.53
675.08838,-2420.58
675.56281,-2308.04
676.03723,-2304.21
676.5116,-2370.57
676.98602,-2343.9
677.46045,-2281.16
677.93488,-2302.23
678.4093,-2360.87
678.88373,-2365.62
679.35815,-2300.65
679.83258,-2298.72
680.30695,-2272.04
680.78137,-2314.55
681.2558,-2311.52
681.73022,-2209.89
682.20465,-2283.06
682.67908,-2247.22
683.1535,-2253.08
683.62793,-2394.69
684.10229,-2278.09
684.57672,-2291.42
685.05115,-2302.65
685.52557,-2274.04
686,-2367.31
686.47443,-2413.72
686.94885,-2362.85
687.42328,-2281.9
687.89764,-2293.4
688.37207,-2394.21
688.8465,-2312.32
689.32092,-2371.82
689.79535,-2398.41
690.26978,-2372.01
690.7442,-2292.64
691.21863,-2394.09
691.69299,-2509.68
692.16742,-2391.83
692.64185,-2427.68
693.11627,-2552.62
693.5907,-2336.71
694.06512,-2348.12
694.53955,-2347.49
695.01398,-2436.52
695.48834,-2433.65
695.96277,-2461.67
696.43719,-2388.22
696.91162,-2343.83
697.38605,-2338.91
697.86047,-2327.11
698.3349,-2404.47
698.80933,-2457.47
699.28369,-2488.67
699.75812,-2508.81
700.23254,-2417.51
700.70697,-2465.86
701.1814,-2398.51
701.65582,-2500.88
702.13025,-2550.92
702.60468,-2481.16
703.07904,-2468.82
703.55347,-2448.69
704.02789,-2344.96
704.50232,-2335.63
704.97675,-2382.36
705.45117,-2362.28
705.9256,-2415.54
706.40002,-2457.66
706.87439,-2385.28
707.34882,-2511.31
707.82324,-2528.65
708.29767,-2410.67
708.77209,-2438.2
709.24652,-2383.6
709.72095,-2391.08
710.19537,-2494.51
710.66974,-2476.48
711.14417,-2431.61
711.61859,-2528.49
712.09302,-2573.49
712.56744,-2526.49
713.04187,-2507.59
713.5163,-2436.83
713.99072,-2502.64
714.46509,-2563.26
714.93951,-2520.17
715.41394,-2344.49
715.88837,-2429.32
716.36279,-2542.38
716.83722,-2433.56
717.31165,-2473.78
717.78607,-2534.04
718.26044,-2602.85
718.73486,-2623.09
719.20929,-2551.8
719.68372,-2643.08
720.15814,-2444.79
720.63257,-2573.38
721.10699,-2752.69
721.58142,-2561.67
722.05579,-2461.11
722.53021,-2462.28
723.00464,-2364.17
723.47906,-2385.28
723.95349,-2505.8
724.42792,-2595.58
724.90234,-2526.68
725.37677,-2489.48
725.85114,-2538.12
726.32556,-2470.52
726.79999,-2487.04
727.27441,-2615.18
727.74884,-2559.76
728.22327,-2512.71
728.69769,-2581.22
729.17212,-2729.33
729.64648,-2771.95
730.12091,-2601.19
730.59534,-2511.69
731.06976,-2475.77
731.54419,-2511.27
732.01862,-2518.22
732.49304,-2584.21
732.96747,-2656.5
733.44183,-2547.78
733.91626,-2569.62
734.39069,-2366.12
734.86511,-2241.65
735.33954,-2583.55
735.81396,-2675.01
736.28839,-2602.67
736.76282,-2633.81
737.23718,-2544.51
737.71161,-2657.87
738.18604,-2565.84
738.66046,-2488.41
739.13489,-2632.22
739.60931,-2700.41
740.08374,-2454.35
740.55817,-2514.7
741.03253,-2708.95
741.50696,-2624.41
741.98138,-2592.42
742.45581,-2678.96
742.93024,-2727.61
743.40466,-2699.71
743.87909,-2650.09
744.35345,-2655.19
744.82788,-2693.97
745.30231,-2615.41
745.77673,-2585.85
746.25116,-2534.42
746.72559,-2551.46
747.20001,-2538.96
747.67444,-2588.66
748.1488,-2609.54
748.62323,-2591.16
749.09766,-2568.73
749.57208,-2611.29
750.04651,-2733.94
750.52094,-2605.78
750.99536,-2583.77
751.46979,-2792.09
751.94415,-2698.6
752.41858,-2434.06
752.89301,-2547.68
753.36743,-2547.47
753.84186,-2612.43
754.31628,-2675.53
754.79071,-2633.56
755.26514,-2586.75
755.7395,-2582.35
756.21393,-2710.02
756.68835,-2697.35
757.16278,-2639.1
757.63721,-2762.94
758.11163,-2680.71
758.58606,-2641.34
759.06049,-2632.62
759.53485,-2641.01
760.00928,-2481.66
760.4837,-2606.47
760.95813,-2616.73
761.43256,-2673.88
761.90698,-2726.57
762.38141,-2497.44
762.85583,-2603.51
763.3302,-2914.29
763.80463,-2749.44
764.27905,-2718.13
764.75348,-2629.49
765.22791,-2618.32
765.70233,-2655.45
766.17676,-2618.82
766.65118,-2636.31
767.12555,-2667.81
767.59998,-2472.78
768.0744,-2592.14
768.54883,-2517.37
769.02325,-2493.6
769.49768,-2662.2
769.97211,-2627.45
770.44653,-2744.11
770.9209,-2726.97
771.39532,-2585.74
771.86975,-2623.73
772.34418,-2569.56
772.8186,-2580.52
773.29303,-2721.53
773.76746,-2695.08
774.24188,-2528.99
774.71625,-2467.28
775.19067,-2540.35
775.6651,-2496.61
776.13953,-2610.2
776.61395,-2725.89
777.08838,-2702.86
777.56281,-2746.17
778.03723,-2586.22
778.5116,-2862.06
778.98602,-2704.03
779.46045,-2738.82
779.93488,-2650.18
780.4093,-2532.75
780.88373,-2669.52
781.35815,-2688.41
781.83258,-2611.01
782.30695,-2657.33
782.78137,-2646.28
783.2558,-2700.76
783.73022,-2527.81
784.20465,-2415.06
784.67908,-2773.66
785.1535,-2744.46
785.62793,-2690.45
786.10229,-2839.27
786.57672,-2648.67
787.05115,-2652.35
787.52557,-2791.07
788,-2831.97
788.47443,-2681.27
788.94885,-2603.63
789.42328,-2901.02
789.89764,-2859.3
790.37207,-2613.92
790.8465,-2725.29
791.32092,-2733.83
791.79535,-2857.94
792.26978,-2882.58
792.7442,-2771.37
793.21863,-2596.95
793.69299,-2556.83
794.16742,-2649.21
794.64185,-2714.55
795.11627,-2810.74
795.5907,-2730.93
796.06512,-2614.81
796.53955,-2660.17
797.01398,-2530.67
797.48834,-2644.53
797.96277,-2723.28
798.43719,-2527.92
798.91162,-2492.49
799.38605,-2566.69
799.86047,-2693.19
800.3349,-2656.4
800.80933,-2632.94
801.28369,-2619.9
801.75812,-2656.08
802.23254,-2635.87
802.70697,-2543.25
803.1814,-2587.89
803.65582,-2704.9
804.13025,-2796.07
804.60468,-2463.56
805.07904,-2562.63
805.55347,-2708.76
806.02789,-2673.8
806.50232,-2765.29
806.97675,-2585.29
807.45117,-2593.94
807.9256,-2832.3
808.40002,-2720.14
808.87439,-2693.52
809.34882,-2718.92
809.82324,-2668.33
810.29767,-2627.91
810.77209,-2720.64
811.24652,-2762.03
811.72095,-2745.37
812.19537,-2640.64
812.66974,-2796.78
813.14417,-2630.81
813.61859,-2342.63
814.09302,-1983.26
814.56744,-1778.35
815.04187,-1653.9
815.5163,-1436.69
815.99072,-1744.94
816.46509,-2016.21
816.93951,-2173.31
817.41394,-2421.3
817.88837,-2622.34
818.36279,-2760.5
818.83722,-2735.72
819.31165,-2771.94
819.78607,-2791.6
820.26044,-2699.91
820.73486,-2644.05
821.20929,-2659.51
821.68372,-2819.42
822.15814,-2846.96
822.63257,-2620.56
823.10699,-2620.15
823.58142,-2653.54
824.05579,-2731.72
824.53021,-2775.35
825.00464,-2693
825.47906,-2660.01
825.95349,-2700.95
826.42792,-2643.33
826.90234,-2752.23
827.37677,-2725.59
827.85114,-2721.23
828.32556,-2573
828.79999,-2491.07
829.27441,-2595.88
829.74884,-2420.23
830.22327,-2461.31
830.69769,-2485.59
831.17212,-2462.39
831.64648,-2516.54
832.12091,-2600.36
