Date and Time:                Fri Dec 3 17:32:45.000 2021
Software Version:             4.31.30023.0
Temperature (C):              -50
Model:                        DU420_BVF
Data Type:                    Counts (Bg Corrected)
Acquisition Mode:             Accumulate
Trigger Mode:                 Internal
Exposure Time (secs):         0.09999
Accumulate Cycle Time (secs): 0.09999
Frequency (Hz):               10.001
Number of Accumulations:      1000
Readout Mode:                 Full Vertical Binning
Horizontal binning:           1
Extended Dynamic Range:       off
Horizontally flipped:         false
Vertical Shift Speed (usecs): 8.25
Pixel Readout Time (usecs):   30.303
Serial Number:                CCD-22942
Pre-Amplifier Gain:           1x
Spurious Noise Filter Mode:   No Filter
Photon counted:               false
Data Averaging Filter Mode:   No Filter
KY328i:
Serial Number:                
Wavelength (nm):              924.465
Grating Groove Density (l/mm):150.012
Grating Blaze:                500nm
Output Flipper Port:          Direct
Filter:                       6-785 LP



350,591.217
350.53488,589.947
351.06976,588.148
351.60464,589.79
352.13953,587.825
352.67441,589.436
353.20929,586.756
353.7442,591.063
354.27908,591.705
354.81396,588.019
355.34885,588.782
355.88373,591.075
356.41861,588.951
356.95349,585.809
357.48837,587.151
358.02325,589.532
358.55814,589.722
359.09302,585.813
359.6279,586.074
360.16278,591.369
360.69766,591.425
361.23257,588.059
361.76746,589.854
362.30234,588.933
362.83722,588.433
363.3721,590.594
363.90698,586.955
364.44186,586.758
364.97675,586.719
365.51163,589.547
366.04651,588.232
366.58139,587.306
367.11627,588.489
367.65115,589.383
368.18604,584.2
368.72095,588.389
369.25583,588.872
369.79071,586.208
370.32559,589.046
370.86047,588.248
371.39536,588.728
371.93024,589.684
372.46512,588.168
373,587.884
373.53488,588.801
374.06976,587.4
374.60464,588.585
375.13953,590.095
375.67441,587.251
376.20932,588.689
376.7442,587.348
377.27908,587.862
377.81396,585.558
378.34885,584.621
378.88373,590.319
379.41861,588.26
379.95349,587.67
380.48837,588.316
381.02325,587.274
381.55814,587.363
382.09302,587.049
382.6279,588.574
383.16278,588.857
383.69766,590.074
384.23257,586.757
384.76746,584.053
385.30234,590.083
385.83722,587.994
386.3721,586.58
386.90698,585.632
387.44186,586.287
387.97675,587.185
388.51163,588.57
389.04651,590.849
389.58139,591.129
390.11627,586.364
390.65115,588.798
391.18604,588.74
391.72095,586.18
392.25583,590.829
392.79071,592.222
393.32559,586.875
393.86047,586.046
394.39536,586.004
394.93024,591.782
395.46512,591.888
396,587.919
396.53488,589.096
397.06976,589.277
397.60464,590.047
398.13953,587.71
398.67441,587.331
399.20932,588.192
399.7442,586.682
400.27908,587.505
400.81396,589.859
401.34885,587.793
401.88373,586.69
402.41861,589.702
402.95349,587.359
403.48837,587.82
404.02325,590.016
404.55814,591.818
405.09302,586.557
405.6279,584.652
406.16278,589.017
406.69769,587.168
407.23257,590.53
407.76746,588.778
408.30234,588.409
408.83722,590.303
409.3721,587.682
409.90698,589.883
410.44186,588.859
410.97675,586.013
411.51163,587.039
412.04651,588.192
412.58139,588.592
413.11627,593.766
413.65115,590.393
414.18607,589.21
414.72095,589.321
415.25583,589.822
415.79071,587.746
416.32559,588.288
416.86047,586.471
417.39536,590.705
417.93024,590.065
418.46512,588.271
419,589.603
419.53488,587.101
420.06976,586.937
420.60464,587.103
421.13953,588.214
421.67441,587.364
422.20932,590.082
422.7442,591.682
423.27908,587.706
423.81396,589.332
424.34885,588.979
424.88373,588.386
425.41861,585.703
425.95349,591.442
426.48837,592.392
427.02325,589.613
427.55814,587.584
428.09302,585.748
428.6279,592.089
429.16278,590.435
429.69769,585.42
430.23257,585.639
430.76746,584.338
431.30234,588.551
431.83722,587.235
432.3721,588.833
432.90698,590.328
433.44186,591.352
433.97675,588.694
434.51163,588.566
435.04651,590.923
435.58139,590.006
436.11627,589.033
436.65115,590.93
437.18607,594.453
437.72095,591.712
438.25583,590.315
438.79071,590.783
439.32559,589.262
439.86047,587.282
440.39536,589.164
440.93024,590.1
441.46512,586.215
442,584.761
442.53488,591.25
443.06976,589.777
443.60464,588.067
444.13953,590.328
444.67444,588.342
445.20932,591.391
445.7442,590.439
446.27908,588.601
446.81396,592.83
447.34885,592.845
447.88373,588.726
448.41861,588.736
448.95349,591.786
449.48837,589.89
450.02325,590.395
450.55814,590.369
451.09302,590.214
451.6279,591.724
452.16278,592.437
452.69769,590.991
453.23257,591.507
453.76746,590.351
454.30234,593.18
454.83722,590.822
455.3721,592.159
455.90698,595.068
456.44186,589.125
456.97675,594.855
457.51163,591.113
458.04651,591.106
458.58139,591.412
459.11627,590.927
459.65115,592.069
460.18607,593.63
460.72095,593.372
461.25583,594.61
461.79071,594.54
462.32559,590.713
462.86047,592.002
463.39536,592.836
463.93024,594.582
464.46512,594.814
465,593.799
465.53488,593.371
466.06976,594.902
466.60464,590.937
467.13953,590.755
467.67444,593.643
468.20932,592.644
468.7442,593.366
469.27908,593.391
469.81396,596.201
470.34885,597.989
470.88373,595.067
471.41861,595.206
471.95349,595.522
472.48837,592.449
473.02325,595.607
473.55814,596.163
474.09302,594.05
474.6279,594.403
475.16281,596.888
475.69769,595.221
476.23257,593.883
476.76746,591.44
477.30234,597.133
477.83722,595.51
478.3721,593.605
478.90698,593.261
479.44186,593.772
479.97675,590.65
480.51163,590.994
481.04651,594.409
481.58139,593.264
482.11627,594.109
482.65118,593.504
483.18607,594.496
483.72095,599.266
484.25583,595.225
484.79071,590.1
485.32559,596.743
485.86047,593.917
486.39536,592.394
486.93024,593.529
487.46512,593.044
488,595.856
488.53488,595.325
489.06976,592.2
489.60464,592.12
490.13953,595.661
490.67444,591.125
491.20932,593.372
491.7442,596.612
492.27908,593.148
492.81396,595.668
493.34885,593.198
493.88373,591.892
494.41861,597.04
494.95349,593.988
495.48837,595.699
496.02325,595.671
496.55814,598.191
497.09302,595.878
497.6279,593.032
498.16281,588.259
498.69769,591.921
499.23257,598.735
499.76746,593.44
500.30234,600.29
500.83722,595.29
501.3721,591.255
501.90698,593.793
502.44186,597.765
502.97675,592.621
503.51163,590.773
504.04651,587.07
504.58139,593.374
505.11627,593.671
505.65118,591.64
506.18607,591.24
506.72095,597.809
507.25583,596.646
507.79071,591.637
508.32559,595.019
508.86047,590.438
509.39536,593.569
509.93024,589.882
510.46512,589.194
511,596.998
511.53488,592.615
512.06976,589.816
512.60468,592.512
513.13953,594.926
513.67444,592.658
514.20929,590.79
514.7442,594.719
515.27905,599.658
515.81396,593.072
516.34882,587.024
516.88373,593.967
517.41864,597.866
517.95349,592.311
518.4884,595.484
519.02325,593.852
519.55817,589.042
520.09302,590.162
520.62793,591.27
521.16278,590.302
521.69769,590.879
522.23254,589.113
522.76746,590.294
523.30231,593.857
523.83722,591.347
524.37207,590.455
524.90698,591.233
525.44189,590.203
525.97675,589.665
526.51166,595.921
527.04651,594.977
527.58142,587.007
528.11627,592.179
528.65118,588.507
529.18604,596.628
529.72095,595.152
530.2558,589.322
530.79071,591.567
531.32556,589.922
531.86047,595.228
532.39539,591.283
532.93024,591.675
533.46515,594.659
534,591.158
534.53491,593.66
535.06976,590.985
535.60468,591.087
536.13953,592.707
536.67444,588.827
537.20929,593.634
537.7442,596.123
538.27905,591.805
538.81396,589.866
539.34882,591.68
539.88373,592.223
540.41864,589.979
540.95349,589.185
541.4884,593.73
542.02325,590.316
542.55817,594.006
543.09302,594.178
543.62793,592.237
544.16278,585.233
544.69769,586.576
545.23254,595.27
545.76746,591.209
546.30231,588.428
546.83722,588.104
547.37213,593.447
547.90698,594.927
548.44189,593.042
548.97675,593.968
549.51166,587.875
550.04651,593.247
550.58142,593.543
551.11627,587.709
551.65118,593.529
552.18604,595.474
552.72095,591.492
553.2558,588.131
553.79071,594.497
554.32556,596.341
554.86047,592.112
555.39539,588.49
555.93024,591.716
556.46515,588.685
557,592.826
557.53491,590.436
558.06976,586.474
558.60468,588.008
559.13953,590.117
559.67444,590.654
560.20929,594.022
560.7442,585.875
561.27905,588.599
561.81396,593.119
562.34882,589.755
562.88373,589.432
563.41864,590.604
563.95349,592.923
564.4884,590.68
565.02325,589.669
565.55817,592.828
566.09302,591.986
566.62793,586.269
567.16278,587.96
567.69769,588.473
568.23254,592.785
568.76746,594.816
569.30231,593.591
569.83722,587.659
570.37213,591.103
570.90698,588.681
571.44189,586.83
571.97675,589.148
572.51166,586.519
573.04651,590.257
573.58142,591.957
574.11627,590.101
574.65118,590.593
575.18604,586.338
575.72095,586.345
576.2558,590.858
576.79071,587.009
577.32556,589.516
577.86047,596.139
578.39539,585.888
578.93024,588.434
579.46515,588.892
580,588.874
580.53491,594.518
581.06976,588.834
581.60468,590.04
582.13953,590.421
582.67444,593.74
583.20929,591.023
583.7442,586.886
584.27905,592.448
584.81396,594.369
585.34888,593.699
585.88373,591.673
586.41864,591.725
586.95349,595.517
587.4884,596.807
588.02325,594.96
588.55817,595.633
589.09302,599.148
589.62793,595.776
590.16278,595.509
590.69769,597.113
591.23254,596.854
591.76746,595.127
592.30231,597.843
592.83722,596.442
593.37213,600.659
593.90698,599.141
594.44189,598.845
594.97675,599.164
595.51166,598.457
596.04651,599.946
596.58142,605.213
597.11627,610.629
597.65118,609.022
598.18604,605.452
598.72095,608.598
599.2558,606.569
599.79071,607.092
600.32556,610.435
600.86047,614.883
601.39539,610.886
601.93024,619.134
602.46515,616.676
603,618.524
603.53491,620.206
604.06976,620.816
604.60468,622.817
605.13953,623.241
605.67444,625.888
606.20929,627.209
606.7442,625.121
607.27905,624.66
607.81396,636.276
608.34888,637.061
608.88373,638.29
609.41864,635.031
609.95349,641.201
610.4884,635.807
611.02325,637.762
611.55817,641.685
612.09302,636.358
612.62793,642.686
613.16278,648.036
613.69769,640.69
614.23254,641.068
614.76746,646.855
615.30231,644.036
615.83722,640.955
616.37213,638.488
616.90698,640.528
617.44189,640.233
617.97675,640.751
618.51166,636.454
619.04651,643.448
619.58142,636.613
620.11627,639.352
620.65118,638.49
621.18604,650.088
621.72095,650.01
622.2558,648.204
622.79071,646.31
623.32556,638.644
623.86047,636.693
624.39539,643.94
624.93024,640.88
625.46515,644.576
626,641.168
626.53491,638.776
627.06976,637.236
627.60468,634.545
628.13953,631.518
628.67444,635.702
629.20929,642.614
629.7442,643.205
630.27905,635.134
630.81396,628.212
631.34888,631.275
631.88373,632.63
632.41864,630.523
632.95349,637.296
633.4884,635.706
634.02325,638.061
634.55817,642.68
635.09302,628.105
635.62793,627.875
636.16278,634.56
636.69769,626.59
637.23254,627.976
637.76746,633.193
638.30231,629.639
638.83722,629.392
639.37213,629.629
639.90698,632.408
640.44189,629.371
640.97675,631.024
641.51166,632.543
642.04651,636.541
642.58142,621.011
643.11627,621.57
643.65118,626.409
644.18604,625.192
644.72095,623.532
645.2558,628.202
645.79071,630.992
646.32562,620.493
646.86047,625.409
647.39539,628.326
647.93024,626.747
648.46515,629.748
649,632.531
649.53491,623.764
650.06976,624.879
650.60468,624.551
651.13953,625.026
651.67444,624.133
652.20929,624.579
652.7442,620.033
653.27905,623.073
653.81396,623.438
654.34888,619.813
654.88373,623.565
655.41864,618.101
655.95349,618.971
656.4884,619.099
657.02325,619.112
657.55817,617.624
658.09302,616.471
658.62793,616.763
659.16278,615.004
659.69769,618.104
660.23254,617.484
660.76746,615.345
661.30231,616.442
661.83722,613.146
662.37213,617.842
662.90698,617.891
663.44189,613.248
663.97675,618.045
664.51166,621.45
665.04651,617.047
665.58142,617.314
666.11627,617.238
666.65118,615.19
667.18604,613.193
667.72095,613.525
668.2558,616.71
668.79071,616.516
669.32562,611.191
669.86047,614.598
670.39539,615.146
670.93024,617.974
671.46515,615.122
672,614.305
672.53491,615.68
673.06976,613.939
673.60468,615.796
674.13953,615.011
674.67444,612.426
675.20929,611.406
675.7442,607.738
676.27905,609.143
676.81396,608.54
677.34888,606.144
677.88373,611.328
678.41864,617.192
678.95349,609.443
679.4884,609.165
680.02325,613.119
680.55817,609.392
681.09302,610.006
681.62793,610.019
682.16278,609.669
682.69769,610.746
683.23254,605.152
683.76746,606.982
684.30237,609.573
684.83722,611.182
685.37213,610.476
685.90698,604.744
686.44189,612.024
686.97675,612.058
687.51166,607.426
688.04651,604.394
688.58142,606.957
689.11627,611.16
689.65118,608.386
690.18604,606.7
690.72095,605.873
691.2558,607.311
691.79071,607.602
692.32562,607.312
692.86047,608.382
693.39539,608.762
693.93024,604.813
694.46515,609.965
695,605.713
695.53491,607.018
696.06976,603.37
696.60468,606.332
697.13953,606.152
697.67444,601.909
698.20929,604.991
698.7442,603.79
699.27905,609.831
699.81396,607.101
700.34888,599.832
700.88373,602.153
701.41864,602.905
701.95349,600.409
702.4884,598.292
703.02325,601.735
703.55817,601.182
704.09302,601.305
704.62793,600.417
705.16278,602.205
705.69769,605.043
706.23254,602.982
706.76746,597.699
707.30237,602.682
707.83722,598.582
708.37213,594.769
708.90698,604.19
709.44189,604.465
709.97675,603.079
710.51166,604.381
711.04651,605.505
711.58142,604.257
712.11627,607.155
712.65118,597.786
713.18604,605.061
713.72095,606.769
714.2558,601.954
714.79071,602.087
715.32562,601.19
715.86047,603.893
716.39539,602.161
716.93024,606.495
717.46515,611.749
718,605.194
718.53491,604.642
719.06976,608.091
719.60468,608.384
720.13953,598.975
720.67444,598.901
721.20929,600.383
721.7442,602.418
722.27911,600.892
722.81396,598.268
723.34888,599.995
723.88373,600.677
724.41864,597.003
724.95349,594.577
725.4884,602.584
726.02325,603.624
726.55817,598.215
727.09302,604.546
727.62793,597.049
728.16278,595.854
728.69769,601.939
729.23254,599.47
729.76746,600.572
730.30237,605.9
730.83722,603.193
731.37213,602.666
731.90698,606.257
732.44189,606.945
732.97675,597.852
733.51166,602.106
734.04651,604.59
734.58142,606.087
735.11627,603.808
735.65118,601.585
736.18604,602.882
736.72095,604.489
737.2558,602.127
737.79071,602.526
738.32562,604.134
738.86047,599.861
739.39539,599.606
739.93024,598.624
740.46515,599.359
741,597.438
741.53491,601.673
742.06976,600.243
742.60468,598.638
743.13953,597.441
743.67444,598.604
744.20929,597.131
744.7442,599.497
745.27911,599.357
745.81396,599.213
746.34888,601.582
746.88373,597.427
747.41864,598.788
747.95349,600.478
748.4884,599.296
749.02325,598.883
749.55817,603.038
750.09302,600.172
750.62793,599.117
751.16278,602.73
751.69769,595.589
752.23254,596.778
752.76746,599.071
753.30237,599.053
753.83722,597.129
754.37213,598.17
754.90698,597.358
755.44189,593.393
755.97675,599.834
756.51166,600.177
757.04651,597.584
757.58142,599.778
758.11627,596.961
758.65118,596.542
759.18604,598.428
759.72095,597.066
760.25586,595.47
760.79071,594.265
761.32562,598.256
761.86047,600.457
762.39539,600.052
762.93024,596.81
763.46515,599.187
764,596.706
764.53491,599.128
765.06976,603.657
765.60468,598.074
766.13953,596.227
766.67444,595.667
767.20929,605.501
767.7442,607.372
768.27911,608.767
768.81396,604.809
769.34888,603.454
769.88373,601.193
770.41864,598.753
770.95349,599.379
771.4884,595.29
772.02325,593.298
772.55817,595.396
773.09302,593.374
773.62793,595.81
774.16278,598.942
774.69769,591.415
775.23254,590.353
775.76746,602.098
776.30237,595.7
776.83722,590.694
777.37213,593.9
777.90698,593.951
778.44189,593.131
778.97675,592.156
779.51166,590.28
780.04651,593.686
780.58142,592.423
781.11627,595.88
781.65118,591.972
782.18604,592.379
782.72095,596.286
783.25586,596.654
783.79071,591.753
784.32562,588.603
784.86047,592.195
785.39539,591.511
785.93024,593.958
786.46515,597.249
787,595.597
787.53491,592.159
788.06976,597.947
788.60468,600.208
789.13953,593.142
789.67444,592.191
790.20929,597.903
790.7442,595.817
791.27911,595.269
791.81396,595.572
792.34888,592.2
792.88373,593.093
793.41864,595.999
793.95349,595.346
794.4884,598.449
795.02325,597.677
795.55817,595.284
796.09302,594.29
796.62793,595.179
797.16278,588.745
797.69769,591.804
798.23254,595.228
798.76746,596.427
799.30237,596.297
799.83722,599.407
800.37213,599.238
800.90698,593.05
801.44189,592.132
801.97675,596.305
802.51166,596.392
803.04651,594.41
803.58142,594.116
804.11627,592.741
804.65118,595.358
805.18604,591.859
805.72095,593.619
806.25586,593.701
806.79071,592.58
807.32562,594.673
807.86047,595.867
808.39539,594.234
808.93024,598.551
809.46515,595.493
810,594.172
810.53491,595.367
811.06976,592.364
811.60468,592.741
812.13953,595.884
812.67444,595.925
813.20929,593.194
813.7442,595.181
814.27911,594.289
814.81396,591.214
815.34888,594.683
815.88373,596.361
816.41864,596.912
816.95349,592.981
817.4884,594.074
818.02325,596.827
818.55817,594.611
819.09302,594.796
819.62793,597.085
820.16278,591.678
820.69769,593.261
821.2326,594.251
821.76746,593.317
822.30237,595.116
822.83722,592.124
823.37213,600.995
823.90698,605.926
824.44189,608.881
824.97675,609.369
825.51166,621.975
826.04651,673.602
826.58142,691.229
827.11627,697.737
827.65118,678.729
828.18604,665.599
828.72095,650.063
829.25586,633.315
829.79071,619.825
830.32562,622.134
830.86047,632.09
831.39539,627.968
831.93024,630.293
832.46515,620.786
833,615.289
833.53491,613.972
834.06976,605.653
834.60468,605.836
835.13953,603.384
835.67444,602.528
836.20929,598.931
836.7442,596.815
837.27911,597.629
837.81396,614.22
838.34888,608.888
838.88373,605.319
839.41864,607.69
839.95349,605.695
840.4884,601.699
841.02325,593.109
841.55817,594.892
842.09302,594.224
842.62793,594.994
843.16278,593.08
843.69769,596.74
844.2326,600.327
844.76746,604.593
845.30237,591.238
845.83722,598.004
846.37213,597.304
846.90698,590.335
847.44189,593.015
847.97675,589.737
848.51166,594.321
849.04651,594.311
849.58142,587.008
850.11627,587.23
850.65118,592.621
851.18604,590.799
851.72095,587.056
852.25586,588.254
852.79071,588.884
853.32562,587.92
853.86047,591.209
854.39539,592.204
854.93024,588.805
855.46515,587.796
856,587.923
856.53491,591.335
857.06976,592.328
857.60468,589.223
858.13953,589.096
858.67444,590.637
859.20935,593.126
859.7442,590.346
860.27911,590.906
860.81396,594.196
861.34888,589.864
861.88373,587.515
862.41864,589.726
862.95349,593.026
863.4884,588.273
864.02325,591.253
864.55817,588.709
865.09302,585.64
865.62793,588.331
866.16278,591.701
866.69769,590.549
867.2326,589
867.76746,589.765
868.30237,590.649
868.83722,592.827
869.37213,590.365
869.90698,587.353
870.44189,590.039
870.97675,593.174
871.51166,590.657
872.04651,592.285
872.58142,589.319
873.11627,589.229
873.65118,590.203
874.18604,587.71
874.72095,594.648
875.25586,593.311
875.79071,591.744
876.32562,591.097
876.86047,590.173
877.39539,590.221
877.93024,590.957
878.46515,591.442
879,593.379
879.53491,591.037
880.06976,590.859
880.60468,590.958
881.13953,590.997
881.67444,593.978
882.20935,592.747
882.7442,592.702
883.27911,593.657
883.81396,595.339
884.34888,603.436
884.88373,616.614
885.41864,632.768
885.95349,637.218
886.4884,632.134
887.02325,619.299
887.55817,618.682
888.09302,609.84
888.62793,604.89
889.16278,598.889
889.69769,599.381
