Date and Time:                Thu Dec 2 20:19:41.000 2021
Software Version:             4.31.30023.0
Temperature (C):              -50
Model:                        DU420_BVF
Data Type:                    Counts (Bg Corrected)
Acquisition Mode:             Accumulate
Trigger Mode:                 Internal
Exposure Time (secs):         0.09999
Accumulate Cycle Time (secs): 0.09999
Frequency (Hz):               10.001
Number of Accumulations:      1000
Readout Mode:                 Full Vertical Binning
Horizontal binning:           1
Extended Dynamic Range:       off
Horizontally flipped:         false
Vertical Shift Speed (usecs): 8.25
Pixel Readout Time (usecs):   30.303
Serial Number:                CCD-22942
Pre-Amplifier Gain:           1x
Spurious Noise Filter Mode:   No Filter
Photon counted:               false
Data Averaging Filter Mode:   No Filter
KY328i:
Serial Number:                
Wavelength (nm):              924.465
Grating Groove Density (l/mm):150.012
Grating Blaze:                500nm
Output Flipper Port:          Direct
Filter:                       6-785 LP



350,591.669
350.53488,588.067
351.06976,593.142
351.60464,589.179
352.13953,587.671
352.67441,593.371
353.20929,591.603
353.7442,592.053
354.27908,589.502
354.81396,590.969
355.34885,592.601
355.88373,589.92
356.41861,591.05
356.95349,592.754
357.48837,593.276
358.02325,586.221
358.55814,588.696
359.09302,593.444
359.6279,589.803
360.16278,587.839
360.69766,591.652
361.23257,588.161
361.76746,589.653
362.30234,585.949
362.83722,591.579
363.3721,592.848
363.90698,589.99
364.44186,588.335
364.97675,585.27
365.51163,591.671
366.04651,592.671
366.58139,588.828
367.11627,590.249
367.65115,590.186
368.18604,588.672
368.72095,587.609
369.25583,592.373
369.79071,591.33
370.32559,591.138
370.86047,593.562
371.39536,592.025
371.93024,588.212
372.46512,591.737
373,592.561
373.53488,592.567
374.06976,591.586
374.60464,589.076
375.13953,589.952
375.67441,588.152
376.20932,590.974
376.7442,594.725
377.27908,590.835
377.81396,587.959
378.34885,590.675
378.88373,592.216
379.41861,589.676
379.95349,591.616
380.48837,591.887
381.02325,594.097
381.55814,590.121
382.09302,588.645
382.6279,589.374
383.16278,590.386
383.69766,591.907
384.23257,587.213
384.76746,591.12
385.30234,591.344
385.83722,590.879
386.3721,590.717
386.90698,589.825
387.44186,589.186
387.97675,591.383
388.51163,591.346
389.04651,588.906
389.58139,591.987
390.11627,586.034
390.65115,592.589
391.18604,591.944
391.72095,592.089
392.25583,588.269
392.79071,590.761
393.32559,586.748
393.86047,590.535
394.39536,592.188
394.93024,590.058
395.46512,590.679
396,590.897
396.53488,593.464
397.06976,589.031
397.60464,584.879
398.13953,589.298
398.67441,593.679
399.20932,594.858
399.7442,593.3
400.27908,589.606
400.81396,588.744
401.34885,590.455
401.88373,593.496
402.41861,596.735
402.95349,595.301
403.48837,594.016
404.02325,592.966
404.55814,590.355
405.09302,591.441
405.6279,592.835
406.16278,594.304
406.69769,589.575
407.23257,594.977
407.76746,591.161
408.30234,588.298
408.83722,588.582
409.3721,588.221
409.90698,588.164
410.44186,594.62
410.97675,594.733
411.51163,589.578
412.04651,590.678
412.58139,591.8
413.11627,590.829
413.65115,590.056
414.18607,592.049
414.72095,588.114
415.25583,589.388
415.79071,595.538
416.32559,592.991
416.86047,591.768
417.39536,589.076
417.93024,590.83
418.46512,588.253
419,590.217
419.53488,591.499
420.06976,587.992
420.60464,589.258
421.13953,590.13
421.67441,593.4
422.20932,595.375
422.7442,592.416
423.27908,591.921
423.81396,592.37
424.34885,593.007
424.88373,590.188
425.41861,589.93
425.95349,591.232
426.48837,590.94
427.02325,590.855
427.55814,592.441
428.09302,591.848
428.6279,589.511
429.16278,587.87
429.69769,591.093
430.23257,593.955
430.76746,592.292
431.30234,590.994
431.83722,588.271
432.3721,590.786
432.90698,591.571
433.44186,592.249
433.97675,588.094
434.51163,591.08
435.04651,592.685
435.58139,586.988
436.11627,589.469
436.65115,592.091
437.18607,590.318
437.72095,589.091
438.25583,588.404
438.79071,590.352
439.32559,592.606
439.86047,591.36
440.39536,590.407
440.93024,590.88
441.46512,589.736
442,589.627
442.53488,587.823
443.06976,593.419
443.60464,593.558
444.13953,588.38
444.67444,590.603
445.20932,589.627
445.7442,591.382
446.27908,592.535
446.81396,589.865
447.34885,588.443
447.88373,593.598
448.41861,593.95
448.95349,592.266
449.48837,592.041
450.02325,590.504
450.55814,590.747
451.09302,591.318
451.6279,588.984
452.16278,591.726
452.69769,589.166
453.23257,589.312
453.76746,591.402
454.30234,593.333
454.83722,592.479
455.3721,591.311
455.90698,588.645
456.44186,590.532
456.97675,591.501
457.51163,591.616
458.04651,592.189
458.58139,589.519
459.11627,593.913
459.65115,591.623
460.18607,589.56
460.72095,591.66
461.25583,591.471
461.79071,588.553
462.32559,590.361
462.86047,589.06
463.39536,592.658
463.93024,594.783
464.46512,592.531
465,593.263
465.53488,592.225
466.06976,588.024
466.60464,591.87
467.13953,591.473
467.67444,590.801
468.20932,593.431
468.7442,593.479
469.27908,590.864
469.81396,589.85
470.34885,593.17
470.88373,592.576
471.41861,589.406
471.95349,591.656
472.48837,592.536
473.02325,590.693
473.55814,591.955
474.09302,593.057
474.6279,595.904
475.16281,590.483
475.69769,586.49
476.23257,591.753
476.76746,592.389
477.30234,592.54
477.83722,597.092
478.3721,591.392
478.90698,591.767
479.44186,591.547
479.97675,592.699
480.51163,590.63
481.04651,592.497
481.58139,587.365
482.11627,589.802
482.65118,595.228
483.18607,589.263
483.72095,586.935
484.25583,589.045
484.79071,590.686
485.32559,588.364
485.86047,594.517
486.39536,592.31
486.93024,589.442
487.46512,591.612
488,589.378
488.53488,595.257
489.06976,591.482
489.60464,590.153
490.13953,589.489
490.67444,593.667
491.20932,589.984
491.7442,590.869
492.27908,593.191
492.81396,596.609
493.34885,591.646
493.88373,591.048
494.41861,593.526
494.95349,595.421
495.48837,594.042
496.02325,590.717
496.55814,594.413
497.09302,592.081
497.6279,591.499
498.16281,590.818
498.69769,591.626
499.23257,592.305
499.76746,590.471
500.30234,589.856
500.83722,589.144
501.3721,591.379
501.90698,595.066
502.44186,587.515
502.97675,590.928
503.51163,597.497
504.04651,591.826
504.58139,590.37
505.11627,594.318
505.65118,593.804
506.18607,592.754
506.72095,591.732
507.25583,592.707
507.79071,592.078
508.32559,591.934
508.86047,593.603
509.39536,591.599
509.93024,592.884
510.46512,595.301
511,592.012
511.53488,589.177
512.06976,593.026
512.60468,592.893
513.13953,590.65
513.67444,593.041
514.20929,587.01
514.7442,591.67
515.27905,595.339
515.81396,593.921
516.34882,590.87
516.88373,591.665
517.41864,596.787
517.95349,593.327
518.4884,591.123
519.02325,592.003
519.55817,592.323
520.09302,592.456
520.62793,588.402
521.16278,587.566
521.69769,592.475
522.23254,593.182
522.76746,592.611
523.30231,594.84
523.83722,590.165
524.37207,592.011
524.90698,595.572
525.44189,591.877
525.97675,591.557
526.51166,590.471
527.04651,590.731
527.58142,591.972
528.11627,591.029
528.65118,587.073
529.18604,587.091
529.72095,595.266
530.2558,597.487
530.79071,591.181
531.32556,601.27
531.86047,596.417
532.39539,594.282
532.93024,592.644
533.46515,593.924
534,597.191
534.53491,591.344
535.06976,592.274
535.60468,596.786
536.13953,593.089
536.67444,589.708
537.20929,591.967
537.7442,595.353
538.27905,592.957
538.81396,588.98
539.34882,593.853
539.88373,597.876
540.41864,594.591
540.95349,593.75
541.4884,593.299
542.02325,598.689
542.55817,595.071
543.09302,597.439
543.62793,597.051
544.16278,597.236
544.69769,598.423
545.23254,592.153
545.76746,596.954
546.30231,589.208
546.83722,593.28
547.37213,598.682
547.90698,593.156
548.44189,599.338
548.97675,596.71
549.51166,592.329
550.04651,596.067
550.58142,595.878
551.11627,594.546
551.65118,598.212
552.18604,600.074
552.72095,598.38
553.2558,594.318
553.79071,595.44
554.32556,595.948
554.86047,602.448
555.39539,598.474
555.93024,599.202
556.46515,605.411
557,597.746
557.53491,596.537
558.06976,599.703
558.60468,597.493
559.13953,597.21
559.67444,599.763
560.20929,601.037
560.7442,605.574
561.27905,602.416
561.81396,601.914
562.34882,602.73
562.88373,601.871
563.41864,601.159
563.95349,601.855
564.4884,601.973
565.02325,603.589
565.55817,601.609
566.09302,603.4
566.62793,603.22
567.16278,606.03
567.69769,603.194
568.23254,601.991
568.76746,606.084
569.30231,599.471
569.83722,601.398
570.37213,601.948
570.90698,609.129
571.44189,605.455
571.97675,601.859
572.51166,601.043
573.04651,609.201
573.58142,611.414
574.11627,606.075
574.65118,605.86
575.18604,604.044
575.72095,606.97
576.2558,605.49
576.79071,606.271
577.32556,613.271
577.86047,614.616
578.39539,605.512
578.93024,610.258
579.46515,611.719
580,606.934
580.53491,604.012
581.06976,615.433
581.60468,609.244
582.13953,607.054
582.67444,614.016
583.20929,610.161
583.7442,611.131
584.27905,611.514
584.81396,613.261
585.34888,612.781
585.88373,607.257
586.41864,607.495
586.95349,616.567
587.4884,613.229
588.02325,615.716
588.55817,611.255
589.09302,614.994
589.62793,614.521
590.16278,619.769
590.69769,613.534
591.23254,613.411
591.76746,614.329
592.30231,617.805
592.83722,613.323
593.37213,614.429
593.90698,617.83
594.44189,624.245
594.97675,614.658
595.51166,610.83
596.04651,616.708
596.58142,615.492
597.11627,615.17
597.65118,611.787
598.18604,614.255
598.72095,620.365
599.2558,617.3
599.79071,614.003
600.32556,608.974
600.86047,613.529
601.39539,617.27
601.93024,618.242
602.46515,619.92
603,621.744
603.53491,619.815
604.06976,613.441
604.60468,620.894
605.13953,618.305
605.67444,615.237
606.20929,620.261
606.7442,618.072
607.27905,613.878
607.81396,620.386
608.34888,619.452
608.88373,619.84
609.41864,619.988
609.95349,616.143
610.4884,615.7
611.02325,611.289
611.55817,609.225
612.09302,613.302
612.62793,612.405
613.16278,611.521
613.69769,616.086
614.23254,616.204
614.76746,618.705
615.30231,622.112
615.83722,618.907
616.37213,622.864
616.90698,616.11
617.44189,615.76
617.97675,620
618.51166,615.171
619.04651,610.295
619.58142,619.442
620.11627,617.672
620.65118,616.685
621.18604,620.46
621.72095,616.592
622.2558,625.764
622.79071,622.55
623.32556,617.767
623.86047,613.522
624.39539,619.043
624.93024,620.588
625.46515,615.899
626,620.33
626.53491,616.551
627.06976,615.004
627.60468,618.503
628.13953,619.236
628.67444,617.28
629.20929,616.01
629.7442,618.004
630.27905,623.019
630.81396,615.701
631.34888,613.891
631.88373,614.024
632.41864,613.658
632.95349,615.367
633.4884,621.284
634.02325,620.989
634.55817,617.203
635.09302,616.232
635.62793,616.85
636.16278,614.529
636.69769,624.731
637.23254,618.813
637.76746,617.891
638.30231,618.977
638.83722,618.034
639.37213,616.013
639.90698,609.271
640.44189,617.245
640.97675,617.218
641.51166,615.634
642.04651,621.9
642.58142,618.337
643.11627,619.773
643.65118,618.56
644.18604,608.918
644.72095,616.549
645.2558,615.251
645.79071,613.25
646.32562,617.348
646.86047,616.037
647.39539,616.02
647.93024,616.369
648.46515,616.807
649,613.932
649.53491,615.02
650.06976,614.989
650.60468,623.723
651.13953,617.068
651.67444,623.883
652.20929,621.53
652.7442,618.802
653.27905,624.286
653.81396,621.726
654.34888,622.408
654.88373,620.633
655.41864,615.62
655.95349,613.534
656.4884,618.27
657.02325,615.457
657.55817,622.234
658.09302,622.543
658.62793,615.744
659.16278,616.577
659.69769,619.483
660.23254,617.489
660.76746,619.877
661.30231,618.147
661.83722,611.385
662.37213,613.31
662.90698,616.268
663.44189,617.608
663.97675,615.51
664.51166,610.4
665.04651,613.77
665.58142,614.851
666.11627,618.264
666.65118,614.963
667.18604,612.924
667.72095,616.251
668.2558,618.825
668.79071,613.804
669.32562,622.152
669.86047,619.227
670.39539,613.664
670.93024,616.221
671.46515,616.587
672,615.323
672.53491,615.487
673.06976,613.941
673.60468,613.803
674.13953,618.606
674.67444,616.039
675.20929,615.635
675.7442,614.416
676.27905,613.462
676.81396,615.657
677.34888,616.477
677.88373,618.249
678.41864,614.265
678.95349,613.207
679.4884,615.608
680.02325,616.518
680.55817,612.603
681.09302,611.09
681.62793,610.619
682.16278,613.987
682.69769,614.028
683.23254,608.584
683.76746,613.797
684.30237,615.53
684.83722,608.907
685.37213,615.699
685.90698,609.8
686.44189,612.666
686.97675,616.25
687.51166,617.348
688.04651,616.377
688.58142,612.284
689.11627,619.035
689.65118,618.342
690.18604,618.141
690.72095,616.719
691.2558,616.078
691.79071,613.968
692.32562,614.522
692.86047,619.256
693.39539,621.099
693.93024,617.93
694.46515,613.537
695,618.137
695.53491,613.618
696.06976,621.025
696.60468,612.602
697.13953,611.462
697.67444,611.805
698.20929,609.417
698.7442,612.395
699.27905,603.889
699.81396,601.249
700.34888,607.863
700.88373,609.413
701.41864,607.581
701.95349,611.524
702.4884,610.192
703.02325,606.04
703.55817,607.448
704.09302,605.688
704.62793,611.306
705.16278,614.292
705.69769,612.395
706.23254,608.949
706.76746,608.542
707.30237,613.272
707.83722,602.391
708.37213,606.86
708.90698,602.071
709.44189,601.661
709.97675,606.237
710.51166,605.945
711.04651,608.468
711.58142,609.51
712.11627,615.014
712.65118,612.513
713.18604,607.682
713.72095,608.06
714.2558,612.75
714.79071,614.728
715.32562,610.822
715.86047,610.397
716.39539,615.533
716.93024,615.386
717.46515,613.918
718,612.42
718.53491,613.804
719.06976,609.078
719.60468,611.412
720.13953,614.023
720.67444,607.506
721.20929,609.893
721.7442,608.489
722.27911,610.391
722.81396,609.017
723.34888,607.418
723.88373,610.918
724.41864,605.394
724.95349,608.941
725.4884,612.97
726.02325,608.127
726.55817,607.615
727.09302,606.088
727.62793,612.349
728.16278,607.763
728.69769,603.943
729.23254,608.603
729.76746,608.185
730.30237,608.971
730.83722,608.256
731.37213,609.242
731.90698,607.019
732.44189,607.341
732.97675,606.945
733.51166,615.207
734.04651,611.034
734.58142,614.099
735.11627,610.074
735.65118,608.468
736.18604,610.332
736.72095,607.07
737.2558,611.755
737.79071,615.119
738.32562,607.586
738.86047,609.769
739.39539,609.434
739.93024,605.884
740.46515,609.231
741,609.482
741.53491,605.194
742.06976,605.9
742.60468,606.89
743.13953,608.503
743.67444,611.628
744.20929,612.91
744.7442,613.904
745.27911,606.375
745.81396,608.066
746.34888,606.275
746.88373,609.086
747.41864,609.373
747.95349,608.089
748.4884,608.416
749.02325,606.945
749.55817,610.29
750.09302,608.094
750.62793,605.998
751.16278,606.541
751.69769,609.451
752.23254,609.719
752.76746,601.547
753.30237,604.493
753.83722,607.813
754.37213,611.457
754.90698,603.917
755.44189,606.685
755.97675,606.648
756.51166,607.629
757.04651,602.266
757.58142,604.109
758.11627,605.909
758.65118,608.05
759.18604,601.152
759.72095,606.36
760.25586,604.937
760.79071,603.296
761.32562,601.185
761.86047,607.952
762.39539,608.79
762.93024,604.133
763.46515,600.399
764,605.33
764.53491,601.413
765.06976,607.067
765.60468,610.827
766.13953,609.566
766.67444,612.604
767.20929,608.133
767.7442,617.026
768.27911,624.777
768.81396,618.593
769.34888,617.86
769.88373,615.881
770.41864,610.51
770.95349,611.685
771.4884,605.836
772.02325,608.967
772.55817,607.179
773.09302,603.799
773.62793,604.343
774.16278,601.766
774.69769,604.2
775.23254,606.626
775.76746,607.528
776.30237,600.827
776.83722,603.166
777.37213,607.154
777.90698,604.826
778.44189,597.537
778.97675,595.515
779.51166,598.671
780.04651,600.813
780.58142,604.15
781.11627,600.543
781.65118,601.005
782.18604,602.434
782.72095,602.408
783.25586,596.926
783.79071,596.72
784.32562,602.337
784.86047,599.074
785.39539,597.045
785.93024,599.396
786.46515,593.702
787,602.878
787.53491,603.342
788.06976,599.106
788.60468,597.786
789.13953,596.194
789.67444,604.055
790.20929,600.74
790.7442,597.876
791.27911,601.028
791.81396,601.951
792.34888,599.439
792.88373,604.384
793.41864,606.491
793.95349,604.239
794.4884,604.396
795.02325,599.851
795.55817,602.617
796.09302,601.628
796.62793,600.805
797.16278,601.613
797.69769,599.658
798.23254,602.565
798.76746,597.88
799.30237,600.625
799.83722,595.808
800.37213,606.587
800.90698,604.092
801.44189,601.551
801.97675,598.752
802.51166,605.626
803.04651,604.575
803.58142,597.537
804.11627,601.758
804.65118,606.702
805.18604,604.818
805.72095,600.349
806.25586,601.788
806.79071,603.889
807.32562,599.562
807.86047,597.407
808.39539,600.192
808.93024,599.896
809.46515,598.423
810,602.235
810.53491,600.884
811.06976,598.035
811.60468,603.335
812.13953,600.12
812.67444,604.49
813.20929,599.14
813.7442,600.868
814.27911,602.338
814.81396,607.73
815.34888,601.702
815.88373,598.252
816.41864,599.577
816.95349,605.587
817.4884,599.937
818.02325,597.44
818.55817,600.93
819.09302,602.449
819.62793,604.437
820.16278,602.408
820.69769,604.337
821.2326,600.36
821.76746,600.573
822.30237,606.55
822.83722,604.712
823.37213,599.065
823.90698,605.485
824.44189,608.949
824.97675,614.94
825.51166,614.625
826.04651,650.269
826.58142,711.274
827.11627,736.245
827.65118,756.455
828.18604,732.568
828.72095,708.416
829.25586,696.281
829.79071,669.592
830.32562,655.647
830.86047,656.851
831.39539,663.634
831.93024,665.236
832.46515,651.663
833,648.747
833.53491,641.361
834.06976,626.319
834.60468,619.522
835.13953,615.303
835.67444,609.124
836.20929,606.356
836.7442,603.995
837.27911,607.124
837.81396,625.916
838.34888,626.309
838.88373,632.097
839.41864,625.088
839.95349,619.628
840.4884,615.106
841.02325,608.808
841.55817,607.604
842.09302,606.074
842.62793,600.263
843.16278,596.499
843.69769,601.443
844.2326,605.321
844.76746,607.566
845.30237,608.731
845.83722,600.863
846.37213,601.522
846.90698,596.753
847.44189,594.719
847.97675,596.097
848.51166,599.401
849.04651,600.31
849.58142,595.408
850.11627,595.713
850.65118,592.342
851.18604,594.298
851.72095,593.58
852.25586,592.648
852.79071,591.502
853.32562,592.827
853.86047,597.126
854.39539,595.629
854.93024,595.192
855.46515,592.599
856,593.469
856.53491,594.863
857.06976,594.178
857.60468,591.581
858.13953,594.343
858.67444,598.187
859.20935,591.746
859.7442,593.594
860.27911,595.245
860.81396,596.178
861.34888,594.033
861.88373,592.944
862.41864,595.235
862.95349,594.005
863.4884,591.613
864.02325,593.884
864.55817,592.182
865.09302,591.467
865.62793,593.739
866.16278,593.203
866.69769,593.192
867.2326,592.996
867.76746,593.08
868.30237,593.573
868.83722,593.459
869.37213,592.923
869.90698,594.552
870.44189,594.3
870.97675,593.122
871.51166,592.96
872.04651,593.802
872.58142,593.003
873.11627,596.419
873.65118,595.369
874.18604,593.652
874.72095,594.608
875.25586,596.21
875.79071,594.381
876.32562,596.094
876.86047,596.596
877.39539,593.948
877.93024,596.857
878.46515,594.47
879,596.16
879.53491,598.294
880.06976,595.02
880.60468,593.696
881.13953,599.215
881.67444,596.467
882.20935,592.648
882.7442,594.541
883.27911,597.243
883.81396,599.421
884.34888,603.692
884.88373,613.189
885.41864,641.615
885.95349,660.692
886.4884,676.037
887.02325,667.823
887.55817,652.184
888.09302,638.727
888.62793,625.343
889.16278,620.542
889.69769,617.925
890.2326,608.48
