Date and Time:                Thu Dec 2 21:26:21.000 2021
Software Version:             4.31.30023.0
Temperature (C):              -50
Model:                        DU420_BVF
Data Type:                    Counts (Bg Corrected)
Acquisition Mode:             Accumulate
Trigger Mode:                 Internal
Exposure Time (secs):         0.09999
Accumulate Cycle Time (secs): 0.09999
Frequency (Hz):               10.001
Number of Accumulations:      1000
Readout Mode:                 Full Vertical Binning
Horizontal binning:           1
Extended Dynamic Range:       off
Horizontally flipped:         false
Vertical Shift Speed (usecs): 8.25
Pixel Readout Time (usecs):   30.303
Serial Number:                CCD-22942
Pre-Amplifier Gain:           1x
Spurious Noise Filter Mode:   No Filter
Photon counted:               false
Data Averaging Filter Mode:   No Filter
KY328i:
Serial Number:                
Wavelength (nm):              924.465
Grating Groove Density (l/mm):150.012
Grating Blaze:                500nm
Output Flipper Port:          Direct
Filter:                       6-785 LP



350,591.917
350.53488,588.995
351.06976,590.632
351.60464,591.213
352.13953,589.357
352.67441,593.02
353.20929,591.571
353.7442,589.63
354.27908,588.978
354.81396,588.73
355.34885,588.224
355.88373,589.473
356.41861,590.537
356.95349,587.316
357.48837,587.923
358.02325,589.888
358.55814,592.258
359.09302,589.663
359.6279,590.38
360.16278,589.564
360.69766,588.834
361.23257,589.156
361.76746,588.058
362.30234,594.589
362.83722,593.804
363.3721,589.148
363.90698,592.291
364.44186,592.711
364.97675,591.099
365.51163,589.97
366.04651,590.536
366.58139,595.659
367.11627,590.104
367.65115,589.334
368.18604,590.391
368.72095,590.932
369.25583,591.77
369.79071,588.354
370.32559,592.683
370.86047,589.295
371.39536,589.196
371.93024,589.182
372.46512,591.224
373,592.121
373.53488,592.753
374.06976,588.197
374.60464,589.255
375.13953,592.014
375.67441,590.136
376.20932,589.046
376.7442,593.101
377.27908,594.731
377.81396,591.887
378.34885,592.137
378.88373,593.253
379.41861,593.894
379.95349,592.676
380.48837,590.029
381.02325,591.497
381.55814,593.313
382.09302,591.922
382.6279,590.307
383.16278,589.961
383.69766,593.877
384.23257,591.888
384.76746,593.799
385.30234,594.2
385.83722,591.808
386.3721,593.193
386.90698,591.064
387.44186,596.455
387.97675,594.647
388.51163,589.95
389.04651,590.832
389.58139,592.901
390.11627,594.131
390.65115,593.566
391.18604,589.092
391.72095,590.275
392.25583,590.543
392.79071,589.724
393.32559,595.326
393.86047,595.228
394.39536,594.444
394.93024,594.56
395.46512,593.61
396,591.43
396.53488,598.591
397.06976,599.406
397.60464,599.232
398.13953,598.235
398.67441,595.565
399.20932,600.409
399.7442,602.239
400.27908,596.302
400.81396,595.431
401.34885,596.893
401.88373,598.641
402.41861,597.423
402.95349,595.877
403.48837,600.667
404.02325,601.119
404.55814,598.792
405.09302,594.931
405.6279,597.849
406.16278,600.248
406.69769,594.323
407.23257,600.866
407.76746,598.35
408.30234,594.014
408.83722,602.916
409.3721,602.887
409.90698,596.852
410.44186,602.051
410.97675,596.604
411.51163,601.363
412.04651,604.935
412.58139,601.147
413.11627,602.284
413.65115,601.884
414.18607,600.994
414.72095,605.099
415.25583,598.799
415.79071,597.882
416.32559,602.722
416.86047,597.755
417.39536,599.383
417.93024,608.503
418.46512,604.53
419,606.974
419.53488,603.232
420.06976,613.701
420.60464,608.032
421.13953,605.503
421.67441,606.545
422.20932,611.222
422.7442,609.281
423.27908,612.057
423.81396,614.652
424.34885,613.473
424.88373,618.152
425.41861,611.417
425.95349,615.775
426.48837,616.829
427.02325,610.754
427.55814,617.425
428.09302,612.32
428.6279,612.01
429.16278,618.05
429.69769,613.323
430.23257,613.884
430.76746,618.92
431.30234,616.273
431.83722,607.508
432.3721,618.796
432.90698,618.737
433.44186,615.457
433.97675,618.945
434.51163,621.295
435.04651,616.992
435.58139,612.009
436.11627,622.891
436.65115,619.992
437.18607,616.084
437.72095,621.421
438.25583,623.749
438.79071,619.899
439.32559,617.451
439.86047,623.359
440.39536,626.938
440.93024,624.973
441.46512,624.969
442,625.289
442.53488,637.764
443.06976,632.884
443.60464,629.115
444.13953,629.201
444.67444,626.63
445.20932,626.759
445.7442,632.914
446.27908,625.855
446.81396,636.337
447.34885,633.018
447.88373,629.567
448.41861,636.53
448.95349,631.621
449.48837,632.072
450.02325,635.844
450.55814,638.536
451.09302,638.475
451.6279,639.429
452.16278,639.747
452.69769,650.583
453.23257,648.171
453.76746,639.272
454.30234,654.787
454.83722,654.308
455.3721,645.752
455.90698,652.309
456.44186,655.279
456.97675,649.929
457.51163,645.654
458.04651,651.232
458.58139,650.551
459.11627,649.534
459.65115,646.309
460.18607,649.08
460.72095,652.818
461.25583,665.137
461.79071,660.515
462.32559,654.789
462.86047,656.815
463.39536,657.687
463.93024,659.463
464.46512,658.856
465,663.013
465.53488,675.164
466.06976,667.071
466.60464,670.313
467.13953,677.092
467.67444,670.795
468.20932,672.891
468.7442,676.37
469.27908,682.863
469.81396,683.39
470.34885,697.286
470.88373,699.068
471.41861,705.168
471.95349,700.568
472.48837,697.156
473.02325,693.091
473.55814,686.747
474.09302,676.299
474.6279,681.518
475.16281,685.975
475.69769,685.351
476.23257,692.922
476.76746,690.818
477.30234,684.255
477.83722,686.554
478.3721,687.866
478.90698,679.87
479.44186,682.77
479.97675,684.841
480.51163,672.552
481.04651,668.104
481.58139,677.023
482.11627,686.77
482.65118,686.694
483.18607,690.643
483.72095,691.074
484.25583,692.349
484.79071,690.354
485.32559,697.079
485.86047,700.932
486.39536,699.34
486.93024,714.783
487.46512,705.112
488,693.206
488.53488,700.906
489.06976,699.424
489.60464,704.586
490.13953,699.474
490.67444,699.34
491.20932,709.188
491.7442,706.219
492.27908,704.132
492.81396,708.83
493.34885,709.68
493.88373,712.243
494.41861,721.516
494.95349,738.668
495.48837,731.415
496.02325,725.783
496.55814,730.702
497.09302,730.311
497.6279,721.473
498.16281,717.624
498.69769,736.686
499.23257,725.105
499.76746,726.531
500.30234,737.776
500.83722,717.851
501.3721,745.205
501.90698,732.919
502.44186,735.817
502.97675,756.195
503.51163,737.719
504.04651,732.195
504.58139,722.782
505.11627,757.865
505.65118,759.453
506.18607,751.594
506.72095,752.06
507.25583,748.857
507.79071,764.734
508.32559,748.942
508.86047,754.155
509.39536,772.049
509.93024,768.247
510.46512,780.751
511,770.946
511.53488,772.692
512.06976,785.698
512.60468,781.926
513.13953,768.077
513.67444,789.258
514.20929,781.054
514.7442,767.115
515.27905,766.212
515.81396,764.738
516.34882,786.677
516.88373,784.233
517.41864,780.39
517.95349,805.264
518.4884,799.413
519.02325,786.25
519.55817,791.103
520.09302,801.161
520.62793,799.033
521.16278,778.535
521.69769,801.293
522.23254,796.161
522.76746,792.756
523.30231,801.379
523.83722,808.854
524.37207,804.794
524.90698,810.562
525.44189,817.783
525.97675,820.606
526.51166,816.179
527.04651,833.629
527.58142,822.954
528.11627,829.815
528.65118,836.312
529.18604,826.242
529.72095,811.938
530.2558,842.035
530.79071,842.929
531.32556,818.837
531.86047,827.597
532.39539,831.638
532.93024,842.305
533.46515,844.206
534,844.866
534.53491,847.805
535.06976,861.853
535.60468,844.902
536.13953,829.552
536.67444,843.815
537.20929,861.959
537.7442,847.274
538.27905,847.714
538.81396,849.901
539.34882,861.543
539.88373,852.188
540.41864,868.915
540.95349,853.24
541.4884,846.456
542.02325,874.864
542.55817,842.952
543.09302,844.737
543.62793,851.422
544.16278,861.163
544.69769,882.778
545.23254,862.438
545.76746,856.493
546.30231,860.715
546.83722,851.733
547.37213,861.348
547.90698,871.081
548.44189,877.981
548.97675,869.002
549.51166,869.537
550.04651,874.972
550.58142,880.53
551.11627,860.187
551.65118,869.747
552.18604,868.067
552.72095,872.636
553.2558,888.912
553.79071,865.883
554.32556,876.941
554.86047,872.471
555.39539,885.633
555.93024,868.149
556.46515,887.55
557,880.417
557.53491,876.156
558.06976,877.897
558.60468,885.04
559.13953,877.531
559.67444,868.142
560.20929,872.191
560.7442,857.809
561.27905,877.511
561.81396,895.302
562.34882,879.073
562.88373,882.897
563.41864,879.514
563.95349,877.491
564.4884,876.662
565.02325,870.21
565.55817,885.207
566.09302,889.467
566.62793,890.321
567.16278,873.959
567.69769,878.098
568.23254,891.211
568.76746,887.079
569.30231,875.414
569.83722,893.156
570.37213,883.568
570.90698,893.699
571.44189,889.303
571.97675,883.99
572.51166,889.596
573.04651,903.112
573.58142,889.348
574.11627,877.835
574.65118,892.282
575.18604,904.65
575.72095,889.502
576.2558,892.643
576.79071,889.117
577.32556,899.484
577.86047,891.929
578.39539,865.12
578.93024,877.158
579.46515,894.821
580,887.087
580.53491,902.34
581.06976,888.063
581.60468,889.029
582.13953,881.253
582.67444,894.435
583.20929,896.544
583.7442,890.498
584.27905,871.965
584.81396,895.181
585.34888,893.727
585.88373,864.396
586.41864,871.868
586.95349,863.999
587.4884,872.292
588.02325,874.923
588.55817,864.078
589.09302,868.752
589.62793,867.921
590.16278,867.448
590.69769,869.123
591.23254,871.655
591.76746,866.351
592.30231,863.317
592.83722,869.884
593.37213,852.667
593.90698,853.43
594.44189,860.128
594.97675,863.49
595.51166,864.256
596.04651,846.529
596.58142,846.966
597.11627,834.329
597.65118,823.688
598.18604,839.541
598.72095,845.871
599.2558,825.37
599.79071,823.572
600.32556,819.802
600.86047,819.55
601.39539,826.073
601.93024,829.462
602.46515,825.987
603,821.75
603.53491,817.003
604.06976,822.526
604.60468,819.677
605.13953,806.731
605.67444,804.277
606.20929,806.908
606.7442,831.58
607.27905,796.32
607.81396,792.262
608.34888,785.063
608.88373,795.542
609.41864,813.768
609.95349,805.644
610.4884,795.313
611.02325,818.895
611.55817,789.776
612.09302,798.733
612.62793,813.141
613.16278,802.517
613.69769,782.937
614.23254,806.175
614.76746,807.109
615.30231,809.773
615.83722,799.541
616.37213,806.507
616.90698,808.238
617.44189,791.598
617.97675,788.7
618.51166,795.26
619.04651,812.659
619.58142,797.759
620.11627,811.433
620.65118,799.653
621.18604,790.848
621.72095,805.757
622.2558,810.233
622.79071,809.839
623.32556,821.995
623.86047,809.868
624.39539,816.821
624.93024,810.87
625.46515,802.17
626,809.701
626.53491,804.553
627.06976,808.635
627.60468,793.555
628.13953,794.457
628.67444,799.015
629.20929,796.414
629.7442,806.176
630.27905,785.534
630.81396,780.623
631.34888,796.006
631.88373,795.406
632.41864,802.383
632.95349,790.462
633.4884,780.569
634.02325,793.454
634.55817,792.278
635.09302,804.21
635.62793,817.202
636.16278,810.058
636.69769,798.599
637.23254,789.998
637.76746,780.465
638.30231,792.615
638.83722,791.222
639.37213,790.267
639.90698,786.492
640.44189,779.752
640.97675,802.753
641.51166,788.528
642.04651,785.328
642.58142,802.028
643.11627,785.883
643.65118,777.301
644.18604,787.077
644.72095,774.264
645.2558,786.364
645.79071,780.045
646.32562,789.523
646.86047,782.561
647.39539,787.297
647.93024,776.687
648.46515,780.369
649,794.63
649.53491,805.143
650.06976,795.275
650.60468,789.279
651.13953,794.014
651.67444,796.457
652.20929,796.44
652.7442,795.837
653.27905,801.218
653.81396,802.24
654.34888,796.372
654.88373,795.466
655.41864,799.762
655.95349,793.646
656.4884,786.82
657.02325,789.427
657.55817,789.664
658.09302,793.172
658.62793,783.093
659.16278,765.744
659.69769,779.22
660.23254,771.928
660.76746,776.756
661.30231,774.411
661.83722,775.04
662.37213,773.884
662.90698,769.706
663.44189,763.423
663.97675,766.88
664.51166,774.957
665.04651,764.891
665.58142,764.435
666.11627,770.421
666.65118,759.822
667.18604,766.727
667.72095,759.858
668.2558,765.012
668.79071,760.873
669.32562,765.13
669.86047,773.016
670.39539,775.7
670.93024,776.705
671.46515,771.404
672,772.35
672.53491,770.35
673.06976,752.068
673.60468,760.891
674.13953,764.694
674.67444,760.709
675.20929,761.734
675.7442,770.201
676.27905,766.163
676.81396,762.786
677.34888,756.3
677.88373,760.657
678.41864,755.496
678.95349,764.521
679.4884,761.471
680.02325,754.308
680.55817,750.691
681.09302,747.687
681.62793,743.956
682.16278,745.852
682.69769,741.202
683.23254,746.946
683.76746,740.205
684.30237,744.249
684.83722,760.435
685.37213,745.977
685.90698,744.996
686.44189,763.085
686.97675,765.255
687.51166,758.124
688.04651,768.492
688.58142,765.684
689.11627,771.371
689.65118,757.663
690.18604,739.338
690.72095,760.04
691.2558,775.772
691.79071,783.168
692.32562,788.894
692.86047,778.318
693.39539,783.903
693.93024,781.839
694.46515,772.657
695,773.06
695.53491,766.798
696.06976,767.896
696.60468,760.63
697.13953,749.501
697.67444,751.554
698.20929,738.952
698.7442,734.781
699.27905,720.303
699.81396,721.424
700.34888,723.441
700.88373,716.017
701.41864,724.647
701.95349,723.427
702.4884,723.001
703.02325,727.768
703.55817,729.927
704.09302,727.731
704.62793,715.124
705.16278,717.765
705.69769,712.68
706.23254,707.502
706.76746,723.75
707.30237,702.86
707.83722,714.045
708.37213,717.914
708.90698,709.115
709.44189,697.127
709.97675,711.147
710.51166,725.523
711.04651,713.118
711.58142,712.212
712.11627,711.257
712.65118,709.531
713.18604,711.733
713.72095,720.099
714.2558,729.749
714.79071,727.921
715.32562,740.455
715.86047,746.57
716.39539,756.501
716.93024,750.473
717.46515,763.07
718,767.607
718.53491,740.314
719.06976,731.422
719.60468,745.516
720.13953,733.825
720.67444,734.331
721.20929,723.889
721.7442,724.076
722.27911,721.018
722.81396,723.577
723.34888,716.989
723.88373,712.601
724.41864,705.888
724.95349,715.651
725.4884,710.42
726.02325,705.505
726.55817,701.642
727.09302,699.583
727.62793,708.187
728.16278,700.909
728.69769,708.399
729.23254,706.729
729.76746,702.411
730.30237,706.724
730.83722,713.183
731.37213,705.896
731.90698,715.608
732.44189,728.63
732.97675,735.231
733.51166,713.238
734.04651,719.868
734.58142,715.636
735.11627,718.654
735.65118,722.747
736.18604,743.815
736.72095,734.285
737.2558,746.926
737.79071,758.274
738.32562,736.187
738.86047,715.164
739.39539,718.107
739.93024,711.912
740.46515,705.274
741,700.126
741.53491,700.841
742.06976,698.198
742.60468,699.895
743.13953,706.572
743.67444,711.802
744.20929,719.433
744.7442,721.132
745.27911,715.513
745.81396,737.727
746.34888,718.086
746.88373,713.39
747.41864,711.636
747.95349,708.602
748.4884,701.065
749.02325,680.499
749.55817,691.942
750.09302,688.122
750.62793,691.564
751.16278,691.428
751.69769,696.093
752.23254,679.07
752.76746,690.908
753.30237,709.995
753.83722,696.501
754.37213,688.922
754.90698,692.589
755.44189,696.07
755.97675,679.302
756.51166,692.241
757.04651,700.186
757.58142,684.982
758.11627,692.732
758.65118,690.528
759.18604,679.721
759.72095,677.245
760.25586,676.848
760.79071,685.492
761.32562,685.686
761.86047,684.444
762.39539,681.614
762.93024,685.978
763.46515,684.432
764,689.427
764.53491,685.214
765.06976,693.082
765.60468,698.177
766.13953,705.024
766.67444,687.554
767.20929,711.079
767.7442,773.247
768.27911,795.673
768.81396,782.268
769.34888,765.662
769.88373,751.258
770.41864,730.96
770.95349,714.101
771.4884,695.023
772.02325,686.78
772.55817,685.136
773.09302,680.863
773.62793,677.923
774.16278,668.803
774.69769,672.057
775.23254,664.642
775.76746,658.913
776.30237,660.061
776.83722,667.112
777.37213,658.923
777.90698,660.48
778.44189,655.31
778.97675,657.742
779.51166,652.305
780.04651,656.839
780.58142,648.001
781.11627,649.406
781.65118,657.061
782.18604,650.416
782.72095,642.902
783.25586,645.45
783.79071,651.289
784.32562,645.102
784.86047,647.124
785.39539,649.215
785.93024,641.921
786.46515,641.318
787,651.192
787.53491,644.008
788.06976,645.439
788.60468,651.23
789.13953,647.015
789.67444,638.945
790.20929,643.725
790.7442,651.219
791.27911,649.338
791.81396,650.433
792.34888,655.388
792.88373,661.209
793.41864,671.082
793.95349,673.27
794.4884,671.76
795.02325,653.358
795.55817,644.688
796.09302,650.043
796.62793,649.706
797.16278,651.527
797.69769,644.55
798.23254,655.385
798.76746,643.418
799.30237,648.965
799.83722,644.159
800.37213,645.72
800.90698,657.87
801.44189,677.117
801.97675,669.423
802.51166,661.124
803.04651,653.846
803.58142,660.86
804.11627,649.139
804.65118,654.288
805.18604,647.416
805.72095,642.79
806.25586,634.641
806.79071,644.321
807.32562,652.832
807.86047,640.491
808.39539,654.394
808.93024,645.551
809.46515,638.65
810,656.604
810.53491,649.464
811.06976,651.678
811.60468,648.339
812.13953,648.654
812.67444,649.527
813.20929,645.025
813.7442,654.02
814.27911,658.106
814.81396,664.213
815.34888,654.986
815.88373,663.76
816.41864,644.002
816.95349,645.309
817.4884,642.162
818.02325,643.437
818.55817,658.394
819.09302,655.984
819.62793,651.488
820.16278,648.818
820.69769,643.996
821.2326,649.708
821.76746,661.769
822.30237,655.203
822.83722,653.795
823.37213,665.797
823.90698,680.474
824.44189,685.441
824.97675,711.995
825.51166,739.636
826.04651,842.049
826.58142,1200.28
827.11627,1517.7
827.65118,1569.3
828.18604,1495.84
828.72095,1321.56
829.25586,1177.74
829.79071,1065.7
830.32562,991.293
830.86047,950.824
831.39539,1014.9
831.93024,1049.75
832.46515,1018.62
833,933.557
833.53491,855.75
834.06976,798.22
834.60468,769.421
835.13953,730.391
835.67444,712.891
836.20929,685.519
836.7442,682.649
837.27911,682.939
837.81396,723.024
838.34888,784.247
838.88373,817.017
839.41864,792.07
839.95349,765.782
840.4884,735.328
841.02325,704.378
841.55817,688.154
842.09302,669.789
842.62793,661.447
843.16278,641.823
843.69769,640.738
844.2326,657.718
844.76746,668.336
845.30237,690.605
845.83722,673.962
846.37213,649.989
846.90698,655.552
847.44189,636.2
847.97675,625.993
848.51166,627.625
849.04651,633.052
849.58142,619.966
850.11627,608.608
850.65118,621.181
851.18604,618.873
851.72095,609.885
852.25586,609.686
852.79071,612.344
853.32562,611.567
853.86047,612.247
854.39539,605.11
854.93024,604.099
855.46515,605.451
856,606.454
856.53491,607.813
857.06976,608.168
857.60468,612.292
858.13953,613.291
858.67444,607.478
859.20935,609.582
859.7442,611.821
860.27911,605.494
860.81396,608.362
861.34888,611.263
861.88373,609.178
862.41864,614.186
862.95349,611.525
863.4884,610.348
864.02325,608.395
864.55817,604.92
865.09302,611.625
865.62793,610.29
866.16278,604.481
866.69769,606.835
867.2326,604.556
867.76746,608.136
868.30237,611.68
868.83722,607.239
869.37213,607.357
869.90698,615.389
870.44189,615.184
870.97675,613.414
871.51166,611.088
872.04651,610.787
872.58142,611.145
873.11627,612.321
873.65118,615.064
874.18604,611.337
874.72095,615.336
875.25586,612.967
875.79071,614.225
876.32562,616.033
876.86047,618.762
877.39539,621.18
877.93024,619.155
878.46515,620.674
879,619.243
879.53491,619.121
880.06976,621.836
880.60468,619.851
881.13953,621.473
881.67444,619.292
882.20935,622.966
882.7442,627.201
883.27911,631.3
883.81396,635.642
884.34888,658.09
884.88373,707.987
885.41864,852.611
885.95349,1014.94
886.4884,1073.42
887.02325,1073.22
887.55817,984.66
888.09302,884.804
888.62793,839.595
889.16278,766.969
889.69769,719.117
