Date and Time:                Thu Dec 2 21:08:08.000 2021
Software Version:             4.31.30023.0
Temperature (C):              -50
Model:                        DU420_BVF
Data Type:                    Counts (Bg Corrected)
Acquisition Mode:             Accumulate
Trigger Mode:                 Internal
Exposure Time (secs):         0.09999
Accumulate Cycle Time (secs): 0.09999
Frequency (Hz):               10.001
Number of Accumulations:      1000
Readout Mode:                 Full Vertical Binning
Horizontal binning:           1
Extended Dynamic Range:       off
Horizontally flipped:         false
Vertical Shift Speed (usecs): 8.25
Pixel Readout Time (usecs):   30.303
Serial Number:                CCD-22942
Pre-Amplifier Gain:           1x
Spurious Noise Filter Mode:   No Filter
Photon counted:               false
Data Averaging Filter Mode:   No Filter
KY328i:
Serial Number:                
Wavelength (nm):              924.465
Grating Groove Density (l/mm):150.012
Grating Blaze:                500nm
Output Flipper Port:          Direct
Filter:                       6-785 LP



350,593.105
350.53488,594.264
351.06976,590.938
351.60464,592.815
352.13953,591.235
352.67441,589.042
353.20929,591.614
353.7442,589.186
354.27908,587.886
354.81396,590.85
355.34885,594.644
355.88373,589.896
356.41861,588.258
356.95349,588.502
357.48837,589.299
358.02325,592.779
358.55814,589.614
359.09302,587.255
359.6279,591.359
360.16278,590.505
360.69766,591.529
361.23257,593.184
361.76746,590.243
362.30234,592.432
362.83722,590.336
363.3721,588.753
363.90698,588.187
364.44186,588.668
364.97675,589.211
365.51163,591.117
366.04651,586.761
366.58139,592.628
367.11627,593.175
367.65115,588.113
368.18604,588.71
368.72095,592.873
369.25583,590.353
369.79071,591.663
370.32559,592.245
370.86047,591.529
371.39536,589.928
371.93024,590.726
372.46512,592.63
373,589.487
373.53488,590.235
374.06976,592.032
374.60464,592.952
375.13953,591.18
375.67441,591.928
376.20932,593.594
376.7442,591.022
377.27908,595.24
377.81396,591.838
378.34885,589.54
378.88373,589.053
379.41861,592.104
379.95349,587.623
380.48837,588.305
381.02325,587.355
381.55814,590.497
382.09302,594.667
382.6279,591.167
383.16278,591.166
383.69766,593.232
384.23257,590.133
384.76746,588.435
385.30234,590.996
385.83722,591.368
386.3721,594.76
386.90698,596.885
387.44186,589.556
387.97675,590.651
388.51163,588.187
389.04651,592.421
389.58139,588.318
390.11627,589.77
390.65115,591.961
391.18604,591.115
391.72095,590.733
392.25583,591.629
392.79071,594.831
393.32559,591.958
393.86047,595.014
394.39536,594.951
394.93024,593.384
395.46512,592.526
396,590.924
396.53488,591.581
397.06976,589.254
397.60464,592.67
398.13953,591.851
398.67441,591.636
399.20932,589.478
399.7442,589.203
400.27908,594.648
400.81396,592.11
401.34885,590.463
401.88373,593.632
402.41861,594.3
402.95349,587.608
403.48837,588.68
404.02325,591.081
404.55814,593.65
405.09302,590.027
405.6279,592.927
406.16278,596.324
406.69769,593.395
407.23257,598.088
407.76746,589.015
408.30234,590.369
408.83722,589.308
409.3721,591.822
409.90698,591.393
410.44186,592.255
410.97675,594.131
411.51163,591.405
412.04651,592.61
412.58139,593.631
413.11627,588.791
413.65115,591.978
414.18607,592.642
414.72095,588.013
415.25583,591.13
415.79071,591.513
416.32559,592.353
416.86047,593.154
417.39536,595.132
417.93024,589.327
418.46512,594.608
419,593.749
419.53488,590.341
420.06976,593.042
420.60464,591.576
421.13953,589.886
421.67441,591.976
422.20932,593.718
422.7442,591.343
423.27908,593.612
423.81396,593.477
424.34885,592.304
424.88373,594.009
425.41861,591.997
425.95349,593.841
426.48837,589.702
427.02325,590.158
427.55814,596.717
428.09302,592.98
428.6279,589.641
429.16278,592.283
429.69769,594.731
430.23257,594.29
430.76746,596.551
431.30234,592.529
431.83722,592.946
432.3721,593.247
432.90698,595.716
433.44186,594.778
433.97675,593.827
434.51163,594.029
435.04651,594.313
435.58139,593.519
436.11627,594.409
436.65115,594.595
437.18607,594.109
437.72095,591.094
438.25583,592.056
438.79071,594.966
439.32559,594.939
439.86047,595.818
440.39536,593.692
440.93024,593.737
441.46512,592.802
442,597.683
442.53488,598.339
443.06976,595.601
443.60464,596.425
444.13953,595.145
444.67444,595.901
445.20932,595.415
445.7442,593.322
446.27908,593.431
446.81396,592.292
447.34885,597.021
447.88373,597.307
448.41861,593.996
448.95349,594.964
449.48837,593.904
450.02325,598.952
450.55814,593.238
451.09302,595.12
451.6279,596.357
452.16278,594.506
452.69769,594.609
453.23257,593.668
453.76746,596.674
454.30234,597.847
454.83722,595.859
455.3721,595.59
455.90698,599.538
456.44186,601.171
456.97675,594.404
457.51163,595.912
458.04651,601.732
458.58139,595.568
459.11627,596.224
459.65115,596.561
460.18607,599.204
460.72095,597.087
461.25583,596.595
461.79071,600.514
462.32559,594.985
462.86047,597.784
463.39536,598.012
463.93024,600.472
464.46512,598.714
465,600.805
465.53488,601.651
466.06976,602.249
466.60464,601.814
467.13953,599.552
467.67444,597.726
468.20932,603.546
468.7442,598.993
469.27908,598.866
469.81396,600.497
470.34885,604.438
470.88373,603.39
471.41861,602.39
471.95349,603.235
472.48837,601.533
473.02325,605.605
473.55814,600.01
474.09302,598.556
474.6279,601.065
475.16281,601.13
475.69769,600.282
476.23257,605.683
476.76746,600.804
477.30234,596.885
477.83722,602.666
478.3721,601.306
478.90698,603.295
479.44186,598.752
479.97675,603.149
480.51163,599.72
481.04651,599.81
481.58139,600.847
482.11627,603.625
482.65118,603.875
483.18607,601.731
483.72095,599.316
484.25583,598.535
484.79071,601.187
485.32559,604.799
485.86047,608.005
486.39536,603.156
486.93024,603.167
487.46512,605.782
488,600.755
488.53488,599.615
489.06976,603.648
489.60464,606.879
490.13953,600.002
490.67444,598.725
491.20932,609.462
491.7442,602.312
492.27908,607.605
492.81396,605.441
493.34885,610.085
493.88373,603.182
494.41861,605.43
494.95349,607.217
495.48837,605.571
496.02325,604.568
496.55814,607.411
497.09302,607.455
497.6279,606.617
498.16281,604.399
498.69769,611.635
499.23257,608.217
499.76746,605.449
500.30234,605.384
500.83722,607.894
501.3721,612.828
501.90698,609.635
502.44186,603.265
502.97675,607.516
503.51163,606.575
504.04651,606.465
504.58139,610.255
505.11627,615.274
505.65118,608.418
506.18607,611.406
506.72095,609.49
507.25583,615.086
507.79071,618.045
508.32559,613.971
508.86047,612.579
509.39536,613.964
509.93024,615.176
510.46512,616.103
511,619.693
511.53488,615.504
512.06976,616.382
512.60468,618.119
513.13953,616.428
513.67444,619.884
514.20929,614.012
514.7442,612.229
515.27905,623.346
515.81396,619.723
516.34882,626.154
516.88373,622.585
517.41864,624.565
517.95349,628.544
518.4884,625.234
519.02325,625.088
519.55817,623.201
520.09302,629.318
520.62793,622.098
521.16278,624.087
521.69769,627.621
522.23254,631.894
522.76746,626.137
523.30231,626.115
523.83722,630.824
524.37207,631.747
524.90698,635.928
525.44189,631.392
525.97675,635.258
526.51166,630.24
527.04651,624.447
527.58142,633.699
528.11627,632.912
528.65118,640.554
529.18604,632.63
529.72095,642.77
530.2558,642.131
530.79071,632.365
531.32556,639.432
531.86047,640.283
532.39539,638.934
532.93024,639.026
533.46515,642.55
534,651.97
534.53491,656.104
535.06976,640.439
535.60468,647.728
536.13953,651.312
536.67444,653.306
537.20929,653.829
537.7442,663.266
538.27905,651.667
538.81396,648.262
539.34882,661.089
539.88373,658.399
540.41864,661.043
540.95349,660.181
541.4884,656.159
542.02325,663.511
542.55817,664.585
543.09302,661.944
543.62793,673.284
544.16278,667.889
544.69769,663.734
545.23254,657.517
545.76746,660.985
546.30231,675.921
546.83722,668.5
547.37213,654.897
547.90698,673.503
548.44189,672.34
548.97675,675.031
549.51166,671.946
550.04651,673.745
550.58142,669.417
551.11627,674.602
551.65118,670.371
552.18604,686.572
552.72095,680.624
553.2558,677.294
553.79071,674.121
554.32556,681.805
554.86047,679.501
555.39539,688.898
555.93024,695.183
556.46515,680.834
557,679
557.53491,685.554
558.06976,699.344
558.60468,682.17
559.13953,691.164
559.67444,691.997
560.20929,695.103
560.7442,697.194
561.27905,693.622
561.81396,691.241
562.34882,695.595
562.88373,701.685
563.41864,689.373
563.95349,702.667
564.4884,701.789
565.02325,695.439
565.55817,697.653
566.09302,703.101
566.62793,709.493
567.16278,699.048
567.69769,708.081
568.23254,717.456
568.76746,714.24
569.30231,713.366
569.83722,712.487
570.37213,709.643
570.90698,708.134
571.44189,711.925
571.97675,706.768
572.51166,708.919
573.04651,706.491
573.58142,714.56
574.11627,715.049
574.65118,704.851
575.18604,713.686
575.72095,701.446
576.2558,715.673
576.79071,713.839
577.32556,715.574
577.86047,714.524
578.39539,715.997
578.93024,722.535
579.46515,712.73
580,722.734
580.53491,722.763
581.06976,708.852
581.60468,719.382
582.13953,724.236
582.67444,714.5
583.20929,718.614
583.7442,714.934
584.27905,718.463
584.81396,723.878
585.34888,714.404
585.88373,723.508
586.41864,721.677
586.95349,720.007
587.4884,717.686
588.02325,717.107
588.55817,722.615
589.09302,719.992
589.62793,720.544
590.16278,728.624
590.69769,720.089
591.23254,702.958
591.76746,724.131
592.30231,706.774
592.83722,718.359
593.37213,720.118
593.90698,717.967
594.44189,716.505
594.97675,723.376
595.51166,714.175
596.04651,710.405
596.58142,705.041
597.11627,705.34
597.65118,693.942
598.18604,697.027
598.72095,706.946
599.2558,690.487
599.79071,699.106
600.32556,713.282
600.86047,695.967
601.39539,695.543
601.93024,703.579
602.46515,702.895
603,702.049
603.53491,693.803
604.06976,702.604
604.60468,692.955
605.13953,700.393
605.67444,694.742
606.20929,696.021
606.7442,691.657
607.27905,699.987
607.81396,695.641
608.34888,697.444
608.88373,689.156
609.41864,703.449
609.95349,706.415
610.4884,680.678
611.02325,687.055
611.55817,704.149
612.09302,689.375
612.62793,681.528
613.16278,698.439
613.69769,699.219
614.23254,695.773
614.76746,691.793
615.30231,684.427
615.83722,690.975
616.37213,691.87
616.90698,689.067
617.44189,692.642
617.97675,688.116
618.51166,700.652
619.04651,708.861
619.58142,701.156
620.11627,699.757
620.65118,686.802
621.18604,701.27
621.72095,694.333
622.2558,699.778
622.79071,701.271
623.32556,706.555
623.86047,698.024
624.39539,707.495
624.93024,699.227
625.46515,700.183
626,693.361
626.53491,699.593
627.06976,698.373
627.60468,689.338
628.13953,701.069
628.67444,704.247
629.20929,704.983
629.7442,699.423
630.27905,694.604
630.81396,703.9
631.34888,695.098
631.88373,684.505
632.41864,709.798
632.95349,691.158
633.4884,698.54
634.02325,699.919
634.55817,688.543
635.09302,697.897
635.62793,692.386
636.16278,692.964
636.69769,693.944
637.23254,694.087
637.76746,687.214
638.30231,688.273
638.83722,698.955
639.37213,689.519
639.90698,701.404
640.44189,700.948
640.97675,692.694
641.51166,684.666
642.04651,697.732
642.58142,705.482
643.11627,693.426
643.65118,686.014
644.18604,685.917
644.72095,694.567
645.2558,695.693
645.79071,689.644
646.32562,690.662
646.86047,698.605
647.39539,694.278
647.93024,681.464
648.46515,698.918
649,693.868
649.53491,684.856
650.06976,706.591
650.60468,701.075
651.13953,699.529
651.67444,705.494
652.20929,705.848
652.7442,706.833
653.27905,711.894
653.81396,705.301
654.34888,709.359
654.88373,699.746
655.41864,694.865
655.95349,706.912
656.4884,696.744
657.02325,695.391
657.55817,692.901
658.09302,691.802
658.62793,695.543
659.16278,691.524
659.69769,690.691
660.23254,700.904
660.76746,696.111
661.30231,691.66
661.83722,689.877
662.37213,688.988
662.90698,692.729
663.44189,692.789
663.97675,689.462
664.51166,692.495
665.04651,688.888
665.58142,689.582
666.11627,689.382
666.65118,685.747
667.18604,688.968
667.72095,691.119
668.2558,684.434
668.79071,695.078
669.32562,694.16
669.86047,686.516
670.39539,679.392
670.93024,687.34
671.46515,691.49
672,688.748
672.53491,695.5
673.06976,698.471
673.60468,687.401
674.13953,688.112
674.67444,690.152
675.20929,682.829
675.7442,682.607
676.27905,691.923
676.81396,685.002
677.34888,683.02
677.88373,686.32
678.41864,691.962
678.95349,686.366
679.4884,680.14
680.02325,682.23
680.55817,685.322
681.09302,678.922
681.62793,683.348
682.16278,677.35
682.69769,677.702
683.23254,673.636
683.76746,672.167
684.30237,675.557
684.83722,679.678
685.37213,678.207
685.90698,682.973
686.44189,688.939
686.97675,694.914
687.51166,690.016
688.04651,690.227
688.58142,682.883
689.11627,687.16
689.65118,680.894
690.18604,686.012
690.72095,692.011
691.2558,692.88
691.79071,689.43
692.32562,694.536
692.86047,690.76
693.39539,698.556
693.93024,695.622
694.46515,698.116
695,687.77
695.53491,682.92
696.06976,685.518
696.60468,678.925
697.13953,676.173
697.67444,673.252
698.20929,678.226
698.7442,674.445
699.27905,672.525
699.81396,674.596
700.34888,670.546
700.88373,656.983
701.41864,670.621
701.95349,670.24
702.4884,658.48
703.02325,666.44
703.55817,663.682
704.09302,662.03
704.62793,667.831
705.16278,656.132
705.69769,654.826
706.23254,659.028
706.76746,662.659
707.30237,667.128
707.83722,661.036
708.37213,651.341
708.90698,664.161
709.44189,655.984
709.97675,659.568
710.51166,662.19
711.04651,659.213
711.58142,660.327
712.11627,660.191
712.65118,652.859
713.18604,661.114
713.72095,668.695
714.2558,661.25
714.79071,674.925
715.32562,676.316
715.86047,681.877
716.39539,692.871
716.93024,687.484
717.46515,684.782
718,684.97
718.53491,677.493
719.06976,679.888
719.60468,684.419
720.13953,682.603
720.67444,662.184
721.20929,665.255
721.7442,675.184
722.27911,662.093
722.81396,668.299
723.34888,654.851
723.88373,655.968
724.41864,662.469
724.95349,663.887
725.4884,662.012
726.02325,658.715
726.55817,644.154
727.09302,643.714
727.62793,655.48
728.16278,649.967
728.69769,649.553
729.23254,659.56
729.76746,655.785
730.30237,663.533
730.83722,666.095
731.37213,666.043
731.90698,667.008
732.44189,664.24
732.97675,661.021
733.51166,667.044
734.04651,669.136
734.58142,666.298
735.11627,672.207
735.65118,671.187
736.18604,677.579
736.72095,678.705
737.2558,674.969
737.79071,673.606
738.32562,669.359
738.86047,664.202
739.39539,650.724
739.93024,650.504
740.46515,658.309
741,672.471
741.53491,659.808
742.06976,649.072
742.60468,655.659
743.13953,659.318
743.67444,658.516
744.20929,660.164
744.7442,663.267
745.27911,661.779
745.81396,667.142
746.34888,665.169
746.88373,663.569
747.41864,649.089
747.95349,657.21
748.4884,660.278
749.02325,651.821
749.55817,654.985
750.09302,646.912
750.62793,646.958
751.16278,642.042
751.69769,638.157
752.23254,654.8
752.76746,646.883
753.30237,643.661
753.83722,645.96
754.37213,651.474
754.90698,654.107
755.44189,643.408
755.97675,640.953
756.51166,641.131
757.04651,636.306
757.58142,636.93
758.11627,643.279
758.65118,648.729
759.18604,648.54
759.72095,647.956
760.25586,653.761
760.79071,639.214
761.32562,648.08
761.86047,648.921
762.39539,643.331
762.93024,639.697
763.46515,642.943
764,642.154
764.53491,646.618
765.06976,643.926
765.60468,645.687
766.13953,649.213
766.67444,658.657
767.20929,654.161
767.7442,680.676
768.27911,716.187
768.81396,710.979
769.34888,707.827
769.88373,677.847
770.41864,667.215
770.95349,663.504
771.4884,652.748
772.02325,654.392
772.55817,639.91
773.09302,639.358
773.62793,636.307
774.16278,637.657
774.69769,638.541
775.23254,634.642
775.76746,636.884
776.30237,624
776.83722,629.114
777.37213,623.07
777.90698,627.756
778.44189,629.111
778.97675,630.797
779.51166,632.189
780.04651,628.164
780.58142,624.13
781.11627,624.327
781.65118,621.781
782.18604,635.088
782.72095,625.682
783.25586,618.625
783.79071,621.215
784.32562,625.992
784.86047,624.104
785.39539,628.517
785.93024,620.048
786.46515,624.495
787,621.949
787.53491,616.762
788.06976,621.201
788.60468,626.015
789.13953,628.909
789.67444,622.667
790.20929,617.815
790.7442,621.849
791.27911,616.229
791.81396,626.461
792.34888,631.317
792.88373,631.056
793.41864,641.361
793.95349,634.473
794.4884,636.591
795.02325,634.212
795.55817,630.684
796.09302,632.457
796.62793,625.01
797.16278,624.602
797.69769,625.453
798.23254,622.04
798.76746,622.67
799.30237,625.481
799.83722,629.615
800.37213,630.996
800.90698,631.982
801.44189,637.547
801.97675,639.503
802.51166,633.248
803.04651,631.571
803.58142,625.063
804.11627,633.011
804.65118,630.394
805.18604,626.581
805.72095,625.551
806.25586,630.448
806.79071,628.277
807.32562,627.013
807.86047,620.508
808.39539,619.636
808.93024,621.189
809.46515,619.675
810,628.763
810.53491,631.824
811.06976,621.499
811.60468,633.086
812.13953,621.86
812.67444,623.899
813.20929,632.175
813.7442,626.485
814.27911,623.848
814.81396,636.986
815.34888,633.48
815.88373,627.949
816.41864,622.868
816.95349,622.843
817.4884,621.596
818.02325,621.292
818.55817,629.688
819.09302,618.026
819.62793,619.445
820.16278,624.019
820.69769,626.284
821.2326,628.021
821.76746,626.685
822.30237,624.036
822.83722,636.726
823.37213,643.18
823.90698,639.956
824.44189,643.2
824.97675,662.207
825.51166,674.243
826.04651,737.009
826.58142,918.623
827.11627,1136.9
827.65118,1197.53
828.18604,1125.04
828.72095,1023.99
829.25586,939.869
829.79071,858.057
830.32562,805.156
830.86047,803.011
831.39539,844.196
831.93024,860.685
832.46515,853.583
833,803.898
833.53491,749.443
834.06976,705.778
834.60468,693.331
835.13953,673.937
835.67444,671.994
836.20929,654.698
836.7442,638.517
837.27911,646.827
837.81396,669.71
838.34888,709.701
838.88373,719.232
839.41864,716.848
839.95349,686.217
840.4884,664.987
841.02325,660.885
841.55817,652.934
842.09302,642.449
842.62793,627.905
843.16278,629.76
843.69769,624.263
844.2326,634.772
844.76746,645.676
845.30237,647.645
845.83722,647.685
846.37213,630.845
846.90698,627.837
847.44189,616.39
847.97675,616.103
848.51166,609.291
849.04651,612.972
849.58142,608.959
850.11627,609.834
850.65118,606.575
851.18604,602.317
851.72095,604.687
852.25586,607.069
852.79071,606.293
853.32562,604.697
853.86047,596.606
854.39539,599.662
854.93024,602.563
855.46515,598.916
856,603.49
856.53491,601.883
857.06976,600.466
857.60468,605.528
858.13953,599.431
858.67444,601.295
859.20935,603.785
859.7442,599.117
860.27911,601.279
860.81396,601.774
861.34888,602.5
861.88373,599.126
862.41864,598.023
862.95349,602.827
863.4884,602.744
864.02325,603.078
864.55817,598.359
865.09302,603.848
865.62793,603.934
866.16278,597.443
866.69769,598.865
867.2326,599.797
867.76746,602.931
868.30237,601.139
868.83722,600.784
869.37213,599.599
869.90698,602.903
870.44189,604.443
870.97675,604.337
871.51166,603.988
872.04651,603.322
872.58142,607.539
873.11627,607.482
873.65118,602.258
874.18604,600.168
874.72095,602.326
875.25586,602.999
875.79071,604.518
876.32562,606.15
876.86047,605.983
877.39539,605.597
877.93024,607.892
878.46515,609.195
879,609.278
879.53491,606.605
880.06976,604.945
880.60468,607.246
881.13953,608.553
881.67444,606.716
882.20935,610.364
882.7442,611.992
883.27911,615.127
883.81396,616.71
884.34888,627.481
884.88373,655.749
885.41864,722.271
885.95349,820.856
886.4884,866.102
887.02325,846.869
887.55817,803.785
888.09302,751.454
888.62793,720.359
889.16278,690.018
889.69769,667.616
