Date and Time:                Thu Dec 2 20:50:48.000 2021
Software Version:             4.31.30023.0
Temperature (C):              -50
Model:                        DU420_BVF
Data Type:                    Counts (Bg Corrected)
Acquisition Mode:             Accumulate
Trigger Mode:                 Internal
Exposure Time (secs):         0.09999
Accumulate Cycle Time (secs): 0.09999
Frequency (Hz):               10.001
Number of Accumulations:      1000
Readout Mode:                 Full Vertical Binning
Horizontal binning:           1
Extended Dynamic Range:       off
Horizontally flipped:         false
Vertical Shift Speed (usecs): 8.25
Pixel Readout Time (usecs):   30.303
Serial Number:                CCD-22942
Pre-Amplifier Gain:           1x
Spurious Noise Filter Mode:   No Filter
Photon counted:               false
Data Averaging Filter Mode:   No Filter
KY328i:
Serial Number:                
Wavelength (nm):              924.465
Grating Groove Density (l/mm):150.012
Grating Blaze:                500nm
Output Flipper Port:          Direct
Filter:                       6-785 LP



350,587.193
350.53488,593.569
351.06976,592.211
351.60464,593.485
352.13953,593.126
352.67441,591.146
353.20929,591.756
353.7442,589.047
354.27908,590.588
354.81396,591.106
355.34885,593.054
355.88373,591.092
356.41861,588.345
356.95349,589.988
357.48837,588.425
358.02325,591.413
358.55814,591.272
359.09302,592.985
359.6279,595.318
360.16278,589.083
360.69766,592.016
361.23257,592.459
361.76746,588.174
362.30234,592.624
362.83722,594.003
363.3721,592.046
363.90698,590.562
364.44186,589.615
364.97675,593.961
365.51163,592.146
366.04651,591.35
366.58139,589.992
367.11627,591.599
367.65115,591.586
368.18604,591.408
368.72095,591.6
369.25583,593.926
369.79071,591.084
370.32559,590.685
370.86047,591.818
371.39536,595.533
371.93024,591.159
372.46512,588.304
373,593.63
373.53488,592.031
374.06976,588.23
374.60464,587.637
375.13953,594.477
375.67441,593.303
376.20932,589.253
376.7442,591.484
377.27908,591.535
377.81396,592.775
378.34885,589.656
378.88373,588.881
379.41861,591.135
379.95349,595.499
380.48837,590.406
381.02325,592.113
381.55814,596.719
382.09302,591.419
382.6279,592.664
383.16278,589.161
383.69766,591.67
384.23257,590.13
384.76746,590.786
385.30234,594.088
385.83722,594.429
386.3721,590.977
386.90698,589.682
387.44186,590.685
387.97675,595.117
388.51163,593.747
389.04651,593.73
389.58139,594.095
390.11627,591.269
390.65115,592.746
391.18604,589.575
391.72095,587.641
392.25583,591.989
392.79071,591.324
393.32559,591.959
393.86047,586.394
394.39536,591.938
394.93024,594.524
395.46512,590.22
396,593.339
396.53488,591.333
397.06976,593.981
397.60464,593.56
398.13953,592.2
398.67441,596.784
399.20932,591.899
399.7442,590.093
400.27908,593.961
400.81396,592.212
401.34885,587.4
401.88373,591.478
402.41861,593.448
402.95349,591.989
403.48837,592.932
404.02325,592.035
404.55814,591.153
405.09302,590.514
405.6279,589.483
406.16278,591.986
406.69769,591.392
407.23257,593.904
407.76746,593.295
408.30234,591.638
408.83722,591.04
409.3721,592.396
409.90698,587.198
410.44186,589.238
410.97675,592.024
411.51163,587.401
412.04651,590.188
412.58139,593.547
413.11627,588.662
413.65115,585.986
414.18607,591.997
414.72095,590.779
415.25583,592.076
415.79071,592.558
416.32559,591.792
416.86047,592.032
417.39536,592.918
417.93024,592.991
418.46512,589.011
419,589.385
419.53488,592.686
420.06976,593.728
420.60464,593.976
421.13953,588.394
421.67441,592.607
422.20932,591.456
422.7442,591.43
423.27908,592.026
423.81396,591.447
424.34885,590.35
424.88373,591.8
425.41861,591.039
425.95349,594.177
426.48837,589.258
427.02325,592.474
427.55814,596.411
428.09302,593.374
428.6279,591.61
429.16278,589.849
429.69769,592.453
430.23257,590.641
430.76746,588.915
431.30234,595.412
431.83722,593.339
432.3721,593.492
432.90698,589.784
433.44186,593.423
433.97675,592.914
434.51163,591.916
435.04651,591.024
435.58139,591.021
436.11627,592.596
436.65115,591.87
437.18607,590.486
437.72095,591.284
438.25583,595.41
438.79071,593.51
439.32559,591.631
439.86047,594.287
440.39536,590.018
440.93024,591.364
441.46512,594.591
442,591.546
442.53488,595.177
443.06976,592.355
443.60464,593.979
444.13953,592.572
444.67444,594.511
445.20932,592.336
445.7442,589.207
446.27908,594.352
446.81396,594.802
447.34885,592.444
447.88373,594.623
448.41861,596.168
448.95349,594.63
449.48837,592.194
450.02325,591.681
450.55814,594.808
451.09302,594.067
451.6279,592.409
452.16278,595.25
452.69769,593.374
453.23257,591.743
453.76746,595.331
454.30234,594.979
454.83722,593.133
455.3721,594.759
455.90698,593.62
456.44186,592.574
456.97675,593.171
457.51163,594.918
458.04651,595.527
458.58139,593.167
459.11627,593.967
459.65115,596.126
460.18607,592.108
460.72095,596.38
461.25583,594.028
461.79071,595.967
462.32559,592.462
462.86047,593.499
463.39536,594.941
463.93024,595.038
464.46512,593.062
465,598.083
465.53488,595.254
466.06976,597.69
466.60464,595.513
467.13953,597.154
467.67444,594.4
468.20932,596.246
468.7442,597.611
469.27908,591.447
469.81396,595.202
470.34885,594.922
470.88373,594.835
471.41861,592.43
471.95349,589.906
472.48837,596.649
473.02325,598.424
473.55814,593.468
474.09302,597.261
474.6279,596.154
475.16281,592.805
475.69769,596.909
476.23257,596.032
476.76746,598.412
477.30234,594.704
477.83722,597.93
478.3721,595.098
478.90698,592.776
479.44186,593.609
479.97675,595.458
480.51163,590.914
481.04651,592.107
481.58139,593.712
482.11627,595.2
482.65118,594.84
483.18607,595.469
483.72095,595.848
484.25583,593.852
484.79071,596.104
485.32559,595.541
485.86047,593.107
486.39536,591.18
486.93024,588.418
487.46512,596.048
488,597.873
488.53488,593.391
489.06976,593.568
489.60464,596.995
490.13953,600.756
490.67444,597.041
491.20932,596.071
491.7442,595.538
492.27908,590.497
492.81396,592.222
493.34885,597.458
493.88373,592.952
494.41861,589.466
494.95349,592.253
495.48837,595.565
496.02325,599.22
496.55814,596.98
497.09302,598.225
497.6279,597.381
498.16281,592.124
498.69769,595.841
499.23257,598.667
499.76746,596.167
500.30234,598.79
500.83722,606.919
501.3721,598.481
501.90698,600.502
502.44186,595.646
502.97675,600.81
503.51163,597.265
504.04651,598.365
504.58139,588.566
505.11627,598.377
505.65118,598.386
506.18607,597.393
506.72095,599.095
507.25583,597.071
507.79071,598.282
508.32559,596.741
508.86047,594.306
509.39536,599.058
509.93024,598.7
510.46512,592.997
511,595.557
511.53488,597.892
512.06976,600.612
512.60468,595.282
513.13953,601.898
513.67444,601.746
514.20929,594.294
514.7442,603.897
515.27905,596.944
515.81396,597.441
516.34882,595.98
516.88373,599.284
517.41864,598.075
517.95349,594.408
518.4884,600.465
519.02325,602.247
519.55817,598.503
520.09302,599.019
520.62793,602.186
521.16278,599.952
521.69769,598.896
522.23254,604.569
522.76746,599.295
523.30231,598.293
523.83722,604.696
524.37207,605.582
524.90698,600.323
525.44189,604.309
525.97675,604.05
526.51166,608.646
527.04651,602.448
527.58142,600.817
528.11627,602.1
528.65118,607.855
529.18604,606.377
529.72095,604.003
530.2558,610.874
530.79071,604.943
531.32556,603.44
531.86047,606.498
532.39539,604.946
532.93024,606.947
533.46515,606.978
534,609.586
534.53491,613.459
535.06976,608.283
535.60468,609.234
536.13953,607.419
536.67444,609.849
537.20929,612.575
537.7442,613.46
538.27905,616.949
538.81396,611.909
539.34882,611.776
539.88373,606.863
540.41864,611.406
540.95349,623.429
541.4884,615.197
542.02325,614.871
542.55817,615.252
543.09302,614.049
543.62793,617.646
544.16278,623.068
544.69769,620.132
545.23254,622.996
545.76746,620.633
546.30231,619.343
546.83722,610.183
547.37213,616.346
547.90698,623.613
548.44189,625.644
548.97675,622.049
549.51166,620.494
550.04651,627.723
550.58142,625.563
551.11627,625.49
551.65118,624.172
552.18604,630.145
552.72095,623.464
553.2558,632.733
553.79071,633.519
554.32556,630.896
554.86047,634.406
555.39539,636.789
555.93024,628.009
556.46515,626.386
557,636.391
557.53491,625.323
558.06976,633.886
558.60468,638.29
559.13953,639.225
559.67444,643.486
560.20929,638.274
560.7442,635.441
561.27905,633.374
561.81396,640.341
562.34882,641.499
562.88373,636.417
563.41864,634.865
563.95349,638.975
564.4884,649.472
565.02325,652.292
565.55817,648.629
566.09302,651.127
566.62793,645.499
567.16278,650.063
567.69769,654.812
568.23254,659.078
568.76746,649.438
569.30231,650.495
569.83722,655.082
570.37213,647.235
570.90698,653.685
571.44189,644.247
571.97675,652.386
572.51166,655.97
573.04651,649.275
573.58142,659.242
574.11627,653.986
574.65118,653.79
575.18604,649.481
575.72095,656.106
576.2558,661.475
576.79071,655.958
577.32556,665.919
577.86047,663.241
578.39539,662.831
578.93024,658.474
579.46515,661.646
580,663.73
580.53491,664.796
581.06976,666.642
581.60468,659.04
582.13953,664.375
582.67444,663.758
583.20929,669.746
583.7442,655.651
584.27905,651.172
584.81396,662.298
585.34888,664.335
585.88373,654.732
586.41864,665.81
586.95349,671.899
587.4884,671.523
588.02325,667.785
588.55817,663.63
589.09302,664.792
589.62793,664.622
590.16278,660.505
590.69769,662.134
591.23254,661.394
591.76746,670.38
592.30231,680.623
592.83722,670.783
593.37213,677.461
593.90698,676.248
594.44189,670.024
594.97675,662.452
595.51166,663.183
596.04651,663.481
596.58142,665.133
597.11627,662.719
597.65118,663.098
598.18604,660.39
598.72095,662.62
599.2558,664.229
599.79071,664.478
600.32556,657.268
600.86047,663.324
601.39539,671.894
601.93024,672.27
602.46515,671.427
603,657.11
603.53491,666.562
604.06976,667.68
604.60468,667.668
605.13953,666.815
605.67444,664.453
606.20929,667.947
606.7442,660.202
607.27905,648.485
607.81396,657.285
608.34888,662.128
608.88373,650.076
609.41864,651.598
609.95349,660.285
610.4884,659.996
611.02325,653.472
611.55817,652.357
612.09302,664.355
612.62793,668.756
613.16278,658.439
613.69769,674.743
614.23254,660.963
614.76746,660.978
615.30231,654.963
615.83722,656.373
616.37213,657.001
616.90698,654.937
617.44189,670.097
617.97675,661.153
618.51166,657.263
619.04651,656.584
619.58142,659.546
620.11627,651.036
620.65118,658.654
621.18604,668.605
621.72095,660.109
622.2558,661.81
622.79071,660.776
623.32556,660.873
623.86047,660.452
624.39539,656.594
624.93024,663.458
625.46515,669.269
626,663.302
626.53491,661.937
627.06976,661.846
627.60468,666.117
628.13953,664.531
628.67444,660.097
629.20929,660.721
629.7442,664.747
630.27905,664.934
630.81396,664.394
631.34888,664.54
631.88373,658.947
632.41864,662.147
632.95349,668.624
633.4884,667.496
634.02325,662.805
634.55817,667.597
635.09302,660.964
635.62793,663.75
636.16278,656.344
636.69769,662.034
637.23254,666.901
637.76746,668.643
638.30231,660.483
638.83722,660.498
639.37213,663.249
639.90698,664.015
640.44189,662.2
640.97675,664.533
641.51166,659.414
642.04651,660.094
642.58142,663.704
643.11627,663.449
643.65118,664.559
644.18604,656.312
644.72095,650.832
645.2558,656.436
645.79071,662.779
646.32562,664.943
646.86047,653.549
647.39539,661.26
647.93024,667.342
648.46515,657.066
649,662.191
649.53491,662.791
650.06976,670.828
650.60468,672.832
651.13953,670.207
651.67444,672.765
652.20929,670.398
652.7442,669.247
653.27905,671.717
653.81396,668.991
654.34888,662.632
654.88373,667.57
655.41864,663.426
655.95349,657.997
656.4884,666.142
657.02325,659.327
657.55817,652.401
658.09302,659.34
658.62793,660.202
659.16278,656.737
659.69769,654.419
660.23254,655.019
660.76746,649.466
661.30231,655.31
661.83722,657.554
662.37213,659.462
662.90698,657.475
663.44189,655.956
663.97675,652.524
664.51166,652.734
665.04651,661.582
665.58142,656.958
666.11627,648.239
666.65118,661.286
667.18604,654.741
667.72095,654.187
668.2558,658.341
668.79071,661.146
669.32562,654.845
669.86047,656.72
670.39539,662.701
670.93024,657.67
671.46515,657.704
672,657.598
672.53491,657.341
673.06976,652.521
673.60468,658.063
674.13953,653.374
674.67444,665.491
675.20929,665.828
675.7442,656.759
676.27905,652.287
676.81396,663.572
677.34888,654.556
677.88373,656.062
678.41864,660.9
678.95349,657.159
679.4884,650.848
680.02325,647.478
680.55817,652.63
681.09302,655.364
681.62793,647.568
682.16278,653.07
682.69769,651.171
683.23254,650.969
683.76746,653.152
684.30237,652.243
684.83722,639.849
685.37213,646.139
685.90698,649.294
686.44189,657.133
686.97675,657.829
687.51166,662.434
688.04651,648.506
688.58142,652.638
689.11627,656.637
689.65118,654.352
690.18604,656.808
690.72095,651.098
691.2558,652.806
691.79071,661.314
692.32562,663.566
692.86047,659.125
693.39539,651.921
693.93024,663.027
694.46515,665.782
695,658.767
695.53491,654.493
696.06976,645.356
696.60468,645.907
697.13953,644.935
697.67444,648.318
698.20929,645.661
698.7442,642.815
699.27905,647.7
699.81396,640.486
700.34888,645.504
700.88373,642.868
701.41864,642.465
701.95349,649.127
702.4884,642.066
703.02325,643.538
703.55817,646.95
704.09302,639.731
704.62793,639.048
705.16278,637.745
705.69769,643.279
706.23254,640.141
706.76746,631.446
707.30237,646.818
707.83722,639.157
708.37213,635.206
708.90698,632.137
709.44189,638.448
709.97675,639.137
710.51166,638.669
711.04651,631.71
711.58142,637.654
712.11627,639.852
712.65118,637.133
713.18604,637.984
713.72095,641.118
714.2558,644.048
714.79071,645.22
715.32562,652.686
715.86047,653.333
716.39539,647.143
716.93024,646.079
717.46515,653.982
718,656.262
718.53491,643.711
719.06976,641.228
719.60468,648.952
720.13953,644.077
720.67444,653.11
721.20929,642.293
721.7442,635.528
722.27911,633.981
722.81396,642.022
723.34888,641.622
723.88373,641.103
724.41864,640.071
724.95349,638.404
725.4884,636.789
726.02325,628.125
726.55817,631.665
727.09302,632.904
727.62793,636.868
728.16278,629.575
728.69769,636.479
729.23254,636.475
729.76746,642.64
730.30237,633.544
730.83722,634.971
731.37213,639.568
731.90698,638.843
732.44189,645.416
732.97675,640.957
733.51166,634.165
734.04651,644.324
734.58142,640.409
735.11627,635.061
735.65118,642.703
736.18604,648.74
736.72095,650.768
737.2558,649.753
737.79071,652.815
738.32562,643.334
738.86047,646.005
739.39539,632.182
739.93024,634.15
740.46515,636.92
741,635.425
741.53491,634.246
742.06976,635.9
742.60468,644.373
743.13953,638.784
743.67444,635.553
744.20929,640.032
744.7442,635.849
745.27911,635.523
745.81396,640.1
746.34888,639.523
746.88373,639.362
747.41864,637.931
747.95349,636.626
748.4884,636.522
749.02325,634.116
749.55817,636.039
750.09302,629.18
750.62793,627.265
751.16278,634.95
751.69769,624.118
752.23254,631.863
752.76746,638.086
753.30237,638.242
753.83722,629.736
754.37213,629.832
754.90698,631.78
755.44189,628.972
755.97675,630.262
756.51166,630.932
757.04651,625.683
757.58142,626.18
758.11627,631.151
758.65118,625.862
759.18604,631.022
759.72095,630.333
760.25586,628.475
760.79071,633.759
761.32562,623.071
761.86047,626.652
762.39539,630.857
762.93024,631.83
763.46515,628.137
764,632.263
764.53491,626.064
765.06976,625.341
765.60468,630.188
766.13953,634.807
766.67444,637.308
767.20929,643.78
767.7442,650.89
768.27911,662.657
768.81396,672.075
769.34888,665.712
769.88373,655.332
770.41864,643.626
770.95349,641.587
771.4884,640.512
772.02325,632.389
772.55817,629.282
773.09302,626.119
773.62793,623.75
774.16278,627.287
774.69769,619.082
775.23254,622.265
775.76746,618.409
776.30237,624.806
776.83722,615.693
777.37213,612.047
777.90698,620.757
778.44189,616.145
778.97675,618.559
779.51166,611.988
780.04651,611.045
780.58142,618.653
781.11627,618.725
781.65118,614.393
782.18604,614.727
782.72095,611.372
783.25586,613.134
783.79071,614.003
784.32562,610.906
784.86047,616.328
785.39539,619.238
785.93024,608.695
786.46515,611.681
787,617.08
787.53491,616.168
788.06976,615.761
788.60468,616.377
789.13953,617.751
789.67444,610.043
790.20929,616.154
790.7442,616.833
791.27911,615.021
791.81396,613.064
792.34888,613.223
792.88373,621.286
793.41864,626.454
793.95349,627.747
794.4884,624.04
795.02325,618.72
795.55817,621.876
796.09302,615.168
796.62793,613.395
797.16278,617.794
797.69769,614.045
798.23254,614.872
798.76746,613.584
799.30237,611.858
799.83722,612.13
800.37213,619.375
800.90698,619.027
801.44189,622.111
801.97675,621.413
802.51166,617.09
803.04651,621.076
803.58142,623.507
804.11627,619.032
804.65118,620.325
805.18604,622.539
805.72095,615.76
806.25586,611.76
806.79071,622.45
807.32562,617.748
807.86047,609.798
808.39539,618.003
808.93024,614.309
809.46515,613.943
810,616.922
810.53491,616.325
811.06976,611.565
811.60468,618.803
812.13953,622.103
812.67444,621.098
813.20929,618.202
813.7442,617.602
814.27911,623.179
814.81396,619.372
815.34888,619.981
815.88373,614.995
816.41864,623.269
816.95349,618.697
817.4884,615.691
818.02325,620.55
818.55817,613.783
819.09302,618.978
819.62793,617.546
820.16278,612.02
820.69769,617.277
821.2326,620.773
821.76746,623.504
822.30237,620.222
822.83722,615.649
823.37213,630.715
823.90698,633.384
824.44189,638.9
824.97675,645.662
825.51166,655.382
826.04651,713.122
826.58142,876.583
827.11627,983.508
827.65118,999.44
828.18604,942.103
828.72095,876.291
829.25586,808.669
829.79071,777.544
830.32562,747.324
830.86047,741.052
831.39539,763.37
831.93024,762.879
832.46515,758.292
833,732.798
833.53491,696.53
834.06976,678.666
834.60468,668.771
835.13953,657.997
835.67444,646.581
836.20929,631.227
836.7442,631.433
837.27911,632.362
837.81396,646.896
838.34888,674.676
838.88373,677.472
839.41864,663.58
839.95349,663.999
840.4884,652.351
841.02325,635.785
841.55817,625.209
842.09302,622.492
842.62793,617.656
843.16278,613.741
843.69769,608.775
844.2326,623.785
844.76746,635.698
845.30237,644.089
845.83722,631.199
846.37213,619.101
846.90698,619.907
847.44189,618.033
847.97675,611.839
848.51166,605.526
849.04651,603.338
849.58142,603.835
850.11627,601.336
850.65118,607.731
851.18604,605.331
851.72095,599.141
852.25586,599.038
852.79071,600.361
853.32562,598.846
853.86047,598.727
854.39539,595.671
854.93024,605.004
855.46515,603.705
856,598.386
856.53491,595.696
857.06976,601.298
857.60468,598.781
858.13953,597.127
858.67444,599.193
859.20935,598.959
859.7442,600.859
860.27911,598.51
860.81396,603.307
861.34888,598.337
861.88373,597.87
862.41864,599.154
862.95349,595.473
863.4884,596.526
864.02325,598.917
864.55817,600.054
865.09302,599.55
865.62793,597.446
866.16278,598.455
866.69769,598.918
867.2326,596.882
867.76746,601.512
868.30237,599.206
868.83722,600.24
869.37213,601.185
869.90698,599.178
870.44189,600.96
870.97675,602.427
871.51166,601.272
872.04651,600.144
872.58142,601.326
873.11627,602.591
873.65118,600.293
874.18604,601.978
874.72095,598.473
875.25586,600.893
875.79071,604.152
876.32562,604.732
876.86047,602.283
877.39539,604.013
877.93024,603.85
878.46515,604.664
879,604.48
879.53491,602.49
880.06976,608.048
880.60468,607.546
881.13953,605.324
881.67444,604.373
882.20935,606.249
882.7442,606.874
883.27911,611.395
883.81396,609.902
884.34888,616.122
884.88373,645.994
885.41864,705.171
885.95349,768.65
886.4884,787.213
887.02325,771.981
887.55817,742.788
888.09302,703.463
888.62793,679.033
889.16278,651.066
889.69769,640.164
