Date and Time:                Thu Dec 2 22:32:51.000 2021
Software Version:             4.31.30023.0
Temperature (C):              -50
Model:                        DU420_BVF
Data Type:                    Counts (Bg Corrected)
Acquisition Mode:             Accumulate
Trigger Mode:                 Internal
Exposure Time (secs):         0.09999
Accumulate Cycle Time (secs): 0.09999
Frequency (Hz):               10.001
Number of Accumulations:      1000
Readout Mode:                 Full Vertical Binning
Horizontal binning:           1
Extended Dynamic Range:       off
Horizontally flipped:         false
Vertical Shift Speed (usecs): 8.25
Pixel Readout Time (usecs):   30.303
Serial Number:                CCD-22942
Pre-Amplifier Gain:           1x
Spurious Noise Filter Mode:   No Filter
Photon counted:               false
Data Averaging Filter Mode:   No Filter
KY328i:
Serial Number:                
Wavelength (nm):              924.465
Grating Groove Density (l/mm):150.012
Grating Blaze:                500nm
Output Flipper Port:          Direct
Filter:                       6-785 LP



350,591.687
350.53488,588.449
351.06976,589.049
351.60464,591.301
352.13953,591.015
352.67441,595.898
353.20929,591.22
353.7442,588.205
354.27908,594.299
354.81396,590.237
355.34885,588.784
355.88373,592.69
356.41861,592.066
356.95349,590.029
357.48837,590.998
358.02325,589.051
358.55814,591.927
359.09302,592.006
359.6279,589.9
360.16278,589.961
360.69766,591.751
361.23257,591.984
361.76746,591.871
362.30234,590.797
362.83722,594.033
363.3721,589.26
363.90698,589.922
364.44186,588.976
364.97675,590.333
365.51163,590.719
366.04651,588.371
366.58139,586.794
367.11627,587.403
367.65115,590.334
368.18604,589.084
368.72095,585.979
369.25583,590.524
369.79071,594.11
370.32559,589.602
370.86047,591.644
371.39536,589.877
371.93024,587.553
372.46512,590.691
373,591.321
373.53488,587.769
374.06976,586.589
374.60464,594.428
375.13953,587.706
375.67441,591.373
376.20932,592.071
376.7442,588.228
377.27908,592.361
377.81396,593.434
378.34885,587.756
378.88373,588.907
379.41861,589.805
379.95349,590.004
380.48837,588.824
381.02325,592.983
381.55814,589.841
382.09302,588.37
382.6279,595.857
383.16278,589.66
383.69766,588.662
384.23257,590.93
384.76746,586.275
385.30234,589.865
385.83722,589.701
386.3721,589.19
386.90698,587.234
387.44186,590.761
387.97675,591.583
388.51163,589.155
389.04651,592.906
389.58139,587.186
390.11627,594.137
390.65115,590.562
391.18604,590.208
391.72095,592.645
392.25583,588.666
392.79071,589.551
393.32559,590.199
393.86047,587.009
394.39536,594.059
394.93024,594.332
395.46512,586.155
396,590.878
396.53488,591.481
397.06976,585.566
397.60464,586.482
398.13953,592.655
398.67441,591.826
399.20932,591.414
399.7442,592.172
400.27908,591.497
400.81396,589.752
401.34885,592.487
401.88373,589.277
402.41861,590.14
402.95349,593.056
403.48837,590.203
404.02325,591.821
404.55814,588.149
405.09302,585.781
405.6279,588.729
406.16278,593.014
406.69769,590.94
407.23257,592.124
407.76746,591.88
408.30234,592.403
408.83722,592.772
409.3721,591.787
409.90698,592.321
410.44186,590.5
410.97675,592.245
411.51163,588.944
412.04651,584.767
412.58139,590.336
413.11627,593.096
413.65115,591.945
414.18607,588.862
414.72095,592.19
415.25583,591.056
415.79071,588.692
416.32559,592.376
416.86047,596.777
417.39536,593.374
417.93024,589.124
418.46512,589.623
419,591.959
419.53488,593.552
420.06976,587.666
420.60464,593.505
421.13953,591.39
421.67441,591.63
422.20932,592.673
422.7442,592.224
423.27908,590.671
423.81396,585.232
424.34885,590.237
424.88373,593.08
425.41861,590.935
425.95349,591.446
426.48837,592.292
427.02325,590.299
427.55814,587.111
428.09302,591.028
428.6279,592.162
429.16278,591.958
429.69769,592.093
430.23257,592.758
430.76746,590.42
431.30234,593.523
431.83722,590.385
432.3721,591.65
432.90698,589.129
433.44186,588.22
433.97675,591.076
434.51163,591.453
435.04651,591.743
435.58139,594.414
436.11627,592.554
436.65115,593.997
437.18607,590.555
437.72095,589.06
438.25583,590.492
438.79071,595.649
439.32559,592.207
439.86047,591.329
440.39536,591.057
440.93024,589.359
441.46512,590.92
442,594.321
442.53488,591.105
443.06976,589.865
443.60464,592.78
444.13953,589.997
444.67444,591.22
445.20932,591.251
445.7442,590.453
446.27908,594.221
446.81396,589.33
447.34885,591.991
447.88373,595.044
448.41861,591.754
448.95349,590.785
449.48837,595.083
450.02325,595.293
450.55814,592.043
451.09302,589.888
451.6279,591.43
452.16278,589.45
452.69769,591.153
453.23257,593.12
453.76746,591.9
454.30234,588.856
454.83722,591.745
455.3721,593.58
455.90698,589.843
456.44186,592.819
456.97675,593.023
457.51163,594.47
458.04651,593.086
458.58139,590.968
459.11627,592.189
459.65115,592.252
460.18607,591.14
460.72095,594.115
461.25583,592.458
461.79071,592.224
462.32559,592.344
462.86047,590.976
463.39536,590.379
463.93024,590.576
464.46512,591.754
465,593.531
465.53488,590.329
466.06976,591.182
466.60464,591.813
467.13953,590.872
467.67444,593.336
468.20932,591.608
468.7442,591.077
469.27908,591.064
469.81396,592.082
470.34885,594.502
470.88373,595.334
471.41861,593.835
471.95349,591.819
472.48837,594.458
473.02325,595.471
473.55814,591.299
474.09302,589.918
474.6279,592.003
475.16281,590.307
475.69769,590.848
476.23257,592.288
476.76746,591.257
477.30234,593.162
477.83722,592.6
478.3721,594.903
478.90698,590.159
479.44186,589.324
479.97675,587.828
480.51163,590.124
481.04651,591.446
481.58139,589.284
482.11627,595.704
482.65118,595.331
483.18607,594.596
483.72095,588.402
484.25583,591.434
484.79071,596.27
485.32559,591.552
485.86047,591.174
486.39536,595.47
486.93024,595.927
487.46512,588.95
488,592.798
488.53488,593.721
489.06976,588.5
489.60464,588.643
490.13953,591.125
490.67444,592.764
491.20932,590.169
491.7442,594.148
492.27908,593.855
492.81396,593.054
493.34885,592.716
493.88373,592.171
494.41861,593.003
494.95349,595.927
495.48837,593.32
496.02325,593.092
496.55814,594.072
497.09302,591.481
497.6279,590.042
498.16281,592.194
498.69769,592.891
499.23257,590.929
499.76746,589.481
500.30234,590.222
500.83722,589.535
501.3721,594.174
501.90698,593.365
502.44186,592.885
502.97675,592.222
503.51163,592.499
504.04651,590.348
504.58139,592.143
505.11627,593.088
505.65118,594.349
506.18607,592.861
506.72095,592.283
507.25583,596.418
507.79071,593.514
508.32559,592.462
508.86047,594.318
509.39536,594.016
509.93024,597.032
510.46512,596.706
511,593.334
511.53488,592.61
512.06976,588.049
512.60468,592.328
513.13953,592.623
513.67444,591.856
514.20929,591.2
514.7442,596.748
515.27905,594.133
515.81396,594.568
516.34882,589.947
516.88373,593.034
517.41864,595.866
517.95349,594.229
518.4884,591.635
519.02325,596.735
519.55817,594.087
520.09302,595.143
520.62793,596.945
521.16278,597.694
521.69769,591.365
522.23254,596.471
522.76746,594.777
523.30231,590.421
523.83722,593.769
524.37207,593.115
524.90698,594.821
525.44189,597.934
525.97675,595.65
526.51166,598.159
527.04651,594.572
527.58142,599.763
528.11627,594.568
528.65118,594.715
529.18604,595.899
529.72095,595.29
530.2558,595.5
530.79071,590.305
531.32556,592.696
531.86047,599.454
532.39539,598.767
532.93024,599.717
533.46515,600.962
534,596.437
534.53491,594.7
535.06976,591.646
535.60468,597.314
536.13953,599.133
536.67444,594.956
537.20929,596.326
537.7442,596.186
538.27905,601.696
538.81396,602.976
539.34882,595.938
539.88373,594.567
540.41864,599.729
540.95349,600.909
541.4884,597.227
542.02325,599.67
542.55817,594.725
543.09302,594.354
543.62793,595.742
544.16278,595.167
544.69769,595.967
545.23254,596.908
545.76746,598.93
546.30231,600.267
546.83722,599.359
547.37213,601.447
547.90698,599.812
548.44189,598.475
548.97675,601.326
549.51166,600.12
550.04651,597.672
550.58142,599.015
551.11627,598.947
551.65118,594.316
552.18604,601.758
552.72095,600.578
553.2558,598.915
553.79071,600.78
554.32556,598.227
554.86047,599.064
555.39539,599.871
555.93024,600.555
556.46515,603.696
557,602.694
557.53491,603.283
558.06976,604.759
558.60468,607.716
559.13953,603.479
559.67444,600.828
560.20929,604.202
560.7442,605.906
561.27905,596.486
561.81396,599.759
562.34882,605.758
562.88373,597.756
563.41864,600.485
563.95349,599.496
564.4884,601.92
565.02325,603.615
565.55817,601.697
566.09302,597.005
566.62793,605.313
567.16278,603.114
567.69769,607.001
568.23254,601.654
568.76746,598.417
569.30231,605.014
569.83722,604.441
570.37213,605.335
570.90698,601.578
571.44189,606.743
571.97675,607.031
572.51166,603.606
573.04651,603.255
573.58142,605.727
574.11627,606.41
574.65118,607.937
575.18604,609.319
575.72095,606.583
576.2558,610.064
576.79071,608.296
577.32556,605.801
577.86047,607.045
578.39539,604.943
578.93024,610.485
579.46515,606.508
580,607.292
580.53491,614.127
581.06976,611.289
581.60468,609.826
582.13953,613.31
582.67444,608.808
583.20929,609.027
583.7442,616.604
584.27905,618.588
584.81396,612.415
585.34888,619.407
585.88373,618.9
586.41864,621.574
586.95349,618.351
587.4884,617.698
588.02325,617.937
588.55817,623.951
589.09302,626.462
589.62793,622.629
590.16278,627.901
590.69769,630.286
591.23254,630.828
591.76746,629.166
592.30231,625.06
592.83722,624.866
593.37213,627.859
593.90698,635.197
594.44189,636.124
594.97675,636.046
595.51166,639.385
596.04651,640.179
596.58142,637.454
597.11627,633.849
597.65118,636.392
598.18604,640.266
598.72095,630.344
599.2558,638.577
599.79071,645.346
600.32556,639.029
600.86047,642.219
601.39539,640.777
601.93024,642.568
602.46515,646.556
603,646.451
603.53491,639.302
604.06976,645.076
604.60468,646.291
605.13953,647.405
605.67444,650.111
606.20929,644.248
606.7442,644.395
607.27905,636.742
607.81396,639.534
608.34888,648.128
608.88373,649.78
609.41864,642.102
609.95349,640.384
610.4884,643.448
611.02325,648.979
611.55817,654.322
612.09302,649.67
612.62793,644.486
613.16278,639.551
613.69769,649.107
614.23254,651.453
614.76746,641.517
615.30231,640.832
615.83722,642.005
616.37213,639.283
616.90698,637.153
617.44189,646.411
617.97675,641.045
618.51166,639.077
619.04651,643.549
619.58142,647.04
620.11627,648.495
620.65118,646.252
621.18604,636.06
621.72095,636.404
622.2558,640.408
622.79071,642.032
623.32556,640.156
623.86047,638.777
624.39539,641.174
624.93024,638.852
625.46515,640.835
626,638.194
626.53491,642.794
627.06976,642.679
627.60468,633.642
628.13953,640.013
628.67444,633.994
629.20929,640.793
629.7442,639.771
630.27905,635.752
630.81396,636.354
631.34888,636.554
631.88373,639.873
632.41864,647.859
632.95349,634.416
633.4884,646.323
634.02325,639.945
634.55817,641.264
635.09302,640.19
635.62793,638.814
636.16278,643.175
636.69769,638.543
637.23254,634.379
637.76746,637.817
638.30231,636.741
638.83722,638.52
639.37213,638.943
639.90698,645.285
640.44189,637.689
640.97675,636.611
641.51166,636.821
642.04651,627.058
642.58142,635.184
643.11627,635.071
643.65118,631.701
644.18604,634.261
644.72095,633.754
645.2558,632.537
645.79071,632.925
646.32562,627.427
646.86047,632.991
647.39539,630.112
647.93024,625.86
648.46515,630.499
649,637.081
649.53491,638.728
650.06976,634.715
650.60468,641.58
651.13953,634.756
651.67444,640.416
652.20929,646.173
652.7442,637.973
653.27905,635.568
653.81396,632.041
654.34888,629.872
654.88373,635.498
655.41864,638.173
655.95349,634.809
656.4884,631.187
657.02325,636.967
657.55817,635.913
658.09302,632.457
658.62793,630.861
659.16278,626.92
659.69769,629.54
660.23254,634.613
660.76746,633.288
661.30231,634.516
661.83722,634.038
662.37213,631.004
662.90698,632.894
663.44189,635.703
663.97675,629.202
664.51166,629.056
665.04651,630.944
665.58142,628.301
666.11627,633.34
666.65118,634.256
667.18604,630.749
667.72095,626.153
668.2558,632.963
668.79071,634.094
669.32562,630.679
669.86047,628.392
670.39539,628.165
670.93024,631.309
671.46515,623.472
672,627.263
672.53491,632.629
673.06976,638.134
673.60468,631.488
674.13953,632.375
674.67444,622.532
675.20929,624.16
675.7442,628.289
676.27905,628.349
676.81396,629.682
677.34888,632.914
677.88373,629.836
678.41864,627.36
678.95349,623.815
679.4884,628.28
680.02325,624.672
680.55817,624.939
681.09302,627.084
681.62793,628.123
682.16278,625.583
682.69769,622.764
683.23254,629.359
683.76746,624.422
684.30237,621.727
684.83722,628.724
685.37213,629.529
685.90698,625.523
686.44189,621.304
686.97675,633.675
687.51166,637.372
688.04651,628.268
688.58142,626.324
689.11627,628.599
689.65118,630.28
690.18604,627.098
690.72095,631.826
691.2558,630.574
691.79071,626.588
692.32562,628.418
692.86047,628.1
693.39539,625.996
693.93024,638.032
694.46515,630.971
695,627.334
695.53491,630.941
696.06976,630.17
696.60468,625.017
697.13953,617.457
697.67444,622.081
698.20929,622.617
698.7442,626.735
699.27905,621.074
699.81396,620.605
700.34888,623.767
700.88373,627.406
701.41864,621.424
701.95349,619.968
702.4884,619.441
703.02325,619.041
703.55817,617.288
704.09302,620.068
704.62793,610.503
705.16278,617.531
705.69769,612.797
706.23254,616.897
706.76746,621.471
707.30237,616.967
707.83722,615.146
708.37213,618.083
708.90698,614.911
709.44189,613.885
709.97675,616.076
710.51166,612.976
711.04651,620.201
711.58142,615.593
712.11627,614.102
712.65118,615.406
713.18604,622.938
713.72095,625.061
714.2558,618.652
714.79071,619.591
715.32562,622.237
715.86047,633.934
716.39539,627.029
716.93024,628.749
717.46515,623.364
718,621.076
718.53491,625.008
719.06976,623.914
719.60468,624.77
720.13953,629.639
720.67444,617.682
721.20929,620.38
721.7442,619.931
722.27911,615.056
722.81396,622.4
723.34888,614.992
723.88373,617.74
724.41864,617.422
724.95349,614.034
725.4884,620.64
726.02325,615.605
726.55817,614.863
727.09302,618.09
727.62793,613.673
728.16278,620.818
728.69769,613.135
729.23254,609.721
729.76746,616.669
730.30237,616.986
730.83722,619.67
731.37213,618.82
731.90698,622.226
732.44189,620.876
732.97675,616.686
733.51166,612.592
734.04651,619.63
734.58142,617.7
735.11627,626.036
735.65118,626.533
736.18604,628.41
736.72095,621.293
737.2558,619.396
737.79071,622.276
738.32562,615.678
738.86047,619.665
739.39539,615.582
739.93024,614.996
740.46515,617.707
741,623.296
741.53491,609.861
742.06976,616.313
742.60468,619.227
743.13953,612.454
743.67444,606.949
744.20929,609.746
744.7442,613.074
745.27911,613.763
745.81396,614.94
746.34888,616.315
746.88373,617.652
747.41864,620.452
747.95349,620.26
748.4884,610.517
749.02325,610.31
749.55817,611.96
750.09302,612.265
750.62793,609.075
751.16278,611.305
751.69769,609.013
752.23254,610.894
752.76746,613.912
753.30237,614.925
753.83722,615.225
754.37213,612.402
754.90698,607.495
755.44189,612.309
755.97675,609.936
756.51166,608.495
757.04651,611.43
757.58142,607.653
758.11627,610.341
758.65118,606.001
759.18604,612.698
759.72095,612.809
760.25586,610.759
760.79071,610.189
761.32562,607.993
761.86047,613.186
762.39539,612.964
762.93024,609.989
763.46515,616.787
764,606.405
764.53491,612.856
765.06976,610.979
765.60468,610.699
766.13953,613.771
766.67444,614.491
767.20929,619.954
767.7442,619.55
768.27911,627.905
768.81396,634.741
769.34888,629.032
769.88373,624.017
770.41864,620.56
770.95349,611.328
771.4884,615.537
772.02325,618.78
772.55817,612.614
773.09302,613.2
773.62793,612.855
774.16278,606.167
774.69769,609.779
775.23254,610.657
775.76746,608.106
776.30237,608.067
776.83722,604.176
777.37213,605.337
777.90698,612.755
778.44189,604.485
778.97675,602.445
779.51166,602.905
780.04651,605.116
780.58142,608.267
781.11627,599.275
781.65118,605.111
782.18604,607.509
782.72095,602.486
783.25586,602.543
783.79071,603.009
784.32562,598.29
784.86047,597.246
785.39539,599.152
785.93024,604.383
786.46515,603.802
787,601.778
787.53491,603.784
788.06976,599.309
788.60468,601.656
789.13953,599.471
789.67444,603.817
790.20929,600.243
790.7442,609.27
791.27911,603.372
791.81396,605.938
792.34888,610.33
792.88373,603.166
793.41864,607.838
793.95349,610.256
794.4884,604.77
795.02325,608.723
795.55817,604.71
796.09302,605.783
796.62793,609.322
797.16278,600.962
797.69769,604.707
798.23254,602.749
798.76746,599.516
799.30237,601.706
799.83722,606.428
800.37213,607.13
800.90698,605.995
801.44189,606.354
801.97675,600.934
802.51166,608.576
803.04651,609.033
803.58142,601.938
804.11627,603.394
804.65118,606.585
805.18604,603.98
805.72095,605.416
806.25586,603.853
806.79071,603.538
807.32562,602.632
807.86047,600.711
808.39539,605.632
808.93024,600.797
809.46515,600.632
810,603.132
810.53491,605.274
811.06976,607.141
811.60468,603.401
812.13953,602.856
812.67444,606.938
813.20929,604.661
813.7442,603.885
814.27911,606.237
814.81396,600.522
815.34888,601.473
815.88373,603.607
816.41864,602.87
816.95349,601.571
817.4884,603.333
818.02325,602.853
818.55817,606.419
819.09302,602.735
819.62793,604.882
820.16278,608.371
820.69769,602.336
821.2326,604.606
821.76746,607.195
822.30237,607.085
822.83722,604.436
823.37213,602.768
823.90698,610.588
824.44189,613.277
824.97675,618.491
825.51166,619.025
826.04651,632.966
826.58142,719.026
827.11627,798.106
827.65118,806.425
828.18604,791.328
828.72095,755.434
829.25586,716.1
829.79071,679.483
830.32562,684.554
830.86047,672.286
831.39539,674.96
831.93024,682.459
832.46515,677.497
833,660.06
833.53491,652.155
834.06976,634.297
834.60468,625.884
835.13953,624.245
835.67444,619.556
836.20929,612.471
836.7442,604.368
837.27911,610.76
837.81396,618.115
838.34888,639.581
838.88373,638.403
839.41864,636.478
839.95349,617.281
840.4884,621.559
841.02325,618.425
841.55817,612.031
842.09302,602.575
842.62793,604.236
843.16278,601.188
843.69769,601.648
844.2326,605.09
844.76746,612.681
845.30237,614.222
845.83722,610.76
846.37213,601.921
846.90698,605.976
847.44189,600.896
847.97675,598.876
848.51166,598.678
849.04651,596.319
849.58142,598.244
850.11627,595.687
850.65118,594.096
851.18604,592.811
851.72095,593.526
852.25586,595.114
852.79071,598.51
853.32562,597.38
853.86047,594.738
854.39539,594.918
854.93024,600.638
855.46515,596.097
856,594.827
856.53491,599.142
857.06976,594.158
857.60468,594.832
858.13953,595.1
858.67444,594.985
859.20935,594.41
859.7442,593.568
860.27911,590.745
860.81396,594.065
861.34888,596.207
861.88373,594.95
862.41864,591.928
862.95349,592.658
863.4884,595.761
864.02325,595.517
864.55817,593.768
865.09302,594.409
865.62793,594.323
866.16278,595.14
866.69769,594.757
867.2326,593.018
867.76746,593.508
868.30237,593.388
868.83722,594.781
869.37213,596.483
869.90698,597.138
870.44189,591.884
870.97675,592.949
871.51166,597.04
872.04651,596.735
872.58142,595.852
873.11627,594.745
873.65118,595.462
874.18604,596.751
874.72095,594.29
875.25586,592.738
875.79071,594.824
876.32562,595.778
876.86047,594.642
877.39539,598.176
877.93024,594.787
878.46515,599.025
879,595.216
879.53491,595.308
880.06976,595.754
880.60468,598.51
881.13953,597.009
881.67444,596.293
882.20935,595.122
882.7442,599.025
883.27911,597.888
883.81396,601.477
884.34888,599.276
884.88373,614.653
885.41864,638.187
885.95349,676.867
886.4884,695.201
887.02325,688.182
887.55817,678.59
888.09302,655.92
888.62793,640.895
889.16278,628.212
889.69769,622.116
890.2326,613.583
